PE FL                   SPECTRUM    ASCII       PEDS        1.60        
  -1
PM3415~1
23/10/12
11:39:18.00
23/10/12
11:39:18.00


444.500000
1









LS55
10.00
5.00
5.00
SCAN
1
20
100
500
0
500
0
2
0
1
7
ON
500 450 
1 0 0
#HDR
-1
-1
#GR
NM

0.00002384185791015625
0.0
250.000000
0.500000
390
8
13.637000
-4.872446
#DATA
250.000000	13.637000 
250.500000	8.187533  
251.000000	3.673461  
251.500000	0.249095  
252.000000	-2.084985 
252.500000	-3.973937 
253.000000	-4.601851 
253.500000	-4.578444 
254.000000	-4.284445 
254.500000	-4.296127 
255.000000	-4.645303 
255.500000	-4.864631 
256.000000	-4.803994 
256.500000	-4.263901 
257.000000	-3.878650 
257.500000	-3.287008 
258.000000	-2.813255 
258.500000	-2.239931 
259.000000	-1.770655 
259.500000	-1.592687 
260.000000	-1.624456 
260.500000	-1.942391 
261.000000	-2.245659 
261.500000	-2.553637 
262.000000	-2.746556 
262.500000	-3.072948 
263.000000	-3.237456 
263.500000	-3.449521 
264.000000	-3.632683 
264.500000	-3.644630 
265.000000	-3.356516 
265.500000	-2.845136 
266.000000	-2.035220 
266.500000	-0.998806 
267.000000	-0.173790 
267.500000	0.448829  
268.000000	0.445814  
268.500000	-0.161194 
269.000000	-1.389059 
269.500000	-2.489740 
270.000000	-3.506756 
270.500000	-4.303802 
271.000000	-4.722185 
271.500000	-4.872446 
272.000000	-4.611062 
272.500000	-4.049520 
273.000000	-3.333585 
273.500000	-2.987729 
274.000000	-2.794078 
274.500000	-2.460560 
275.000000	-2.317703 
275.500000	-2.230190 
276.000000	-2.433298 
276.500000	-2.543918 
277.000000	-2.293863 
277.500000	-1.796346 
278.000000	-1.217972 
278.500000	-0.980958 
279.000000	-0.568121 
279.500000	-0.315446 
280.000000	-0.399083 
280.500000	-0.869464 
281.000000	-1.442814 
281.500000	-1.786465 
282.000000	-2.229792 
282.500000	-2.249399 
283.000000	-2.325946 
283.500000	-2.114325 
284.000000	-1.626816 
284.500000	-1.404047 
285.000000	-1.226183 
285.500000	-0.920419 
286.000000	-0.364347 
286.500000	-0.308635 
287.000000	-0.353743 
287.500000	-0.491136 
288.000000	-0.844372 
288.500000	-0.993023 
289.000000	-1.430867 
289.500000	-1.648570 
290.000000	-1.482886 
290.500000	-0.966897 
291.000000	-0.571328 
291.500000	-0.358886 
292.000000	-0.035423 
292.500000	0.064249  
293.000000	0.110592  
293.500000	-0.194567 
294.000000	-0.649667 
294.500000	-0.601160 
295.000000	-0.543787 
295.500000	-0.258375 
296.000000	0.038723  
296.500000	0.462437  
297.000000	0.720272  
297.500000	1.124572  
298.000000	1.343841  
298.500000	1.126276  
299.000000	1.024207  
299.500000	0.714362  
300.000000	0.358010  
300.500000	0.159482  
301.000000	-0.045681 
301.500000	-0.215326 
302.000000	0.104317  
302.500000	0.864688  
303.000000	1.363842  
303.500000	1.618525  
304.000000	1.868152  
304.500000	1.805945  
305.000000	1.723048  
305.500000	1.325600  
306.000000	0.662067  
306.500000	0.064189  
307.000000	-0.262304 
307.500000	-0.428855 
308.000000	-0.661703 
308.500000	-0.472742 
309.000000	-0.168698 
309.500000	0.259531  
310.000000	0.623744  
310.500000	1.001548  
311.000000	1.383796  
311.500000	1.576060  
312.000000	1.396675  
312.500000	1.067890  
313.000000	0.863312  
313.500000	0.666820  
314.000000	0.566854  
314.500000	0.674811  
315.000000	1.077478  
315.500000	1.825969  
316.000000	2.520212  
316.500000	2.810865  
317.000000	3.011696  
317.500000	3.087677  
318.000000	2.887934  
318.500000	2.440429  
319.000000	1.809362  
319.500000	1.210257  
320.000000	0.743418  
320.500000	0.366598  
321.000000	0.093227  
321.500000	-0.007559 
322.000000	0.099729  
322.500000	0.335103  
323.000000	0.707599  
323.500000	1.075415  
324.000000	1.599181  
324.500000	1.992756  
325.000000	2.224755  
325.500000	2.458079  
326.000000	2.662300  
326.500000	2.751891  
327.000000	2.746613  
327.500000	2.733568  
328.000000	2.723987  
328.500000	2.949741  
329.000000	3.081971  
329.500000	3.033202  
330.000000	2.852110  
330.500000	2.704658  
331.000000	2.673759  
331.500000	2.583726  
332.000000	2.495453  
332.500000	2.527206  
333.000000	2.791167  
333.500000	3.102777  
334.000000	3.437543  
334.500000	3.401805  
335.000000	3.245732  
335.500000	3.263045  
336.000000	3.240081  
336.500000	3.061228  
337.000000	2.822993  
337.500000	2.632343  
338.000000	2.514583  
338.500000	2.500035  
339.000000	2.274200  
339.500000	1.900303  
340.000000	1.699128  
340.500000	1.728880  
341.000000	1.779040  
341.500000	1.818035  
342.000000	1.907355  
342.500000	1.973964  
343.000000	2.049566  
343.500000	2.020701  
344.000000	1.819975  
344.500000	1.587339  
345.000000	1.479199  
345.500000	1.458056  
346.000000	1.438421  
346.500000	1.449516  
347.000000	1.559980  
347.500000	1.645622  
348.000000	1.703971  
348.500000	1.761069  
349.000000	1.772423  
349.500000	1.746036  
350.000000	1.705056  
350.500000	1.755917  
351.000000	1.769540  
351.500000	1.907078  
352.000000	2.105459  
352.500000	2.239308  
353.000000	2.392321  
353.500000	2.584484  
354.000000	2.683381  
354.500000	2.604971  
355.000000	2.548247  
355.500000	2.416577  
356.000000	2.310228  
356.500000	2.255146  
357.000000	2.171627  
357.500000	2.080196  
358.000000	2.031583  
358.500000	1.977799  
359.000000	1.834105  
359.500000	1.668621  
360.000000	1.631538  
360.500000	1.557616  
361.000000	1.536635  
361.500000	1.616009  
362.000000	1.734881  
362.500000	1.904744  
363.000000	2.083171  
363.500000	2.167939  
364.000000	2.068691  
364.500000	2.096124  
365.000000	2.012731  
365.500000	1.830290  
366.000000	1.694640  
366.500000	1.568694  
367.000000	1.487730  
367.500000	1.494826  
368.000000	1.564447  
368.500000	1.581624  
369.000000	1.738528  
369.500000	1.886388  
370.000000	2.016568  
370.500000	2.228442  
371.000000	2.470496  
371.500000	2.636832  
372.000000	2.771471  
372.500000	2.864159  
373.000000	2.908189  
373.500000	2.915360  
374.000000	2.838216  
374.500000	2.658941  
375.000000	2.526804  
375.500000	2.507938  
376.000000	2.550560  
376.500000	2.585693  
377.000000	2.593924  
377.500000	2.674349  
378.000000	2.698868  
378.500000	2.664674  
379.000000	2.484617  
379.500000	2.206143  
380.000000	1.892209  
380.500000	1.624303  
381.000000	1.382752  
381.500000	1.175613  
382.000000	1.142756  
382.500000	1.196091  
383.000000	1.347175  
383.500000	1.538587  
384.000000	1.729452  
384.500000	1.836073  
385.000000	1.980318  
385.500000	2.106809  
386.000000	2.164311  
386.500000	2.228475  
387.000000	2.249108  
387.500000	2.267053  
388.000000	2.290785  
388.500000	2.306148  
389.000000	2.242470  
389.500000	2.218146  
390.000000	2.242216  
390.500000	2.288551  
391.000000	2.299746  
391.500000	2.249785  
392.000000	2.186117  
392.500000	2.116753  
393.000000	2.017036  
393.500000	1.825462  
394.000000	1.603933  
394.500000	1.433879  
395.000000	1.370450  
395.500000	1.358663  
396.000000	1.343054  
396.500000	1.331729  
397.000000	1.369351  
397.500000	1.421450  
398.000000	1.511931  
398.500000	1.617438  
399.000000	1.720255  
399.500000	1.851622  
400.000000	1.989025  
400.500000	2.136767  
401.000000	2.252210  
401.500000	2.302068  
402.000000	2.248342  
402.500000	2.105779  
403.000000	1.940996  
403.500000	1.724384  
404.000000	1.504916  
404.500000	1.279232  
405.000000	1.159426  
405.500000	1.215860  
406.000000	1.355700  
406.500000	1.531495  
407.000000	1.706302  
407.500000	1.886080  
408.000000	2.004797  
408.500000	2.063407  
409.000000	2.018177  
409.500000	1.911874  
410.000000	1.894315  
410.500000	1.878361  
411.000000	1.894482  
411.500000	1.956528  
412.000000	2.036649  
412.500000	2.101744  
413.000000	2.152221  
413.500000	2.170696  
414.000000	2.136417  
414.500000	2.138847  
415.000000	2.097745  
415.500000	2.041741  
416.000000	2.032010  
416.500000	2.050212  
417.000000	2.049407  
417.500000	2.027810  
418.000000	2.008626  
418.500000	1.982708  
419.000000	1.989169  
419.500000	1.958172  
420.000000	1.913114  
420.500000	1.898020  
421.000000	1.908965  
421.500000	1.892207  
422.000000	1.848022  
422.500000	1.795201  
423.000000	1.743745  
423.500000	1.710125  
424.000000	1.652824  
424.500000	1.600660  
425.000000	1.581393  
425.500000	1.608695  
426.000000	1.639944  
426.500000	1.680730  
427.000000	1.723550  
427.500000	1.744814  
428.000000	1.762153  
428.500000	1.743206  
429.000000	1.699815  
429.500000	1.654567  
430.000000	1.622322  
430.500000	1.594085  
431.000000	1.583697  
431.500000	1.591708  
432.000000	1.602475  
432.500000	1.627538  
433.000000	1.654773  
433.500000	1.668325  
434.000000	1.662640  
434.500000	1.638585  
435.000000	1.610222  
435.500000	1.588393  
436.000000	1.570123  
436.500000	1.556737  
437.000000	1.547685  
437.500000	1.555069  
438.000000	1.569161  
438.500000	1.590198  
439.000000	1.605839  
439.500000	1.600646  
440.000000	1.590144  
440.500000	1.573167  
441.000000	1.542960  
441.500000	1.496816  
442.000000	1.442957  
442.500000	1.381811  
443.000000	1.338922  
443.500000	1.311447  
444.000000	1.275988  
444.500000	1.259732  

