PE FL                   SPECTRUM    ASCII       PEDS        1.60        
  -1
PM3435~1
23/10/12
11:40:39.00
23/10/12
11:40:39.00


444.500000
1









LS55
20.00
5.00
5.00
SCAN
1
20
100
500
0
500
0
2
0
1
7
ON
500 450 
1 0 0
#HDR
-1
-1
#GR
NM

0.00002384185791015625
0.0
250.000000
0.500000
390
8
5.594792
-4.369832
#DATA
250.000000	2.817999  
250.500000	0.845547  
251.000000	-0.892645 
251.500000	-2.123679 
252.000000	-3.159588 
252.500000	-4.016463 
253.000000	-4.369832 
253.500000	-4.142283 
254.000000	-3.744740 
254.500000	-3.522287 
255.000000	-3.252056 
255.500000	-3.083778 
256.000000	-2.787557 
256.500000	-2.464018 
257.000000	-2.394343 
257.500000	-2.218390 
258.000000	-1.881607 
258.500000	-1.446469 
259.000000	-1.226079 
259.500000	-1.328563 
260.000000	-1.726969 
260.500000	-2.091947 
261.000000	-2.035855 
261.500000	-2.030494 
262.000000	-1.705059 
262.500000	-1.328810 
263.000000	-0.686197 
263.500000	0.391757  
264.000000	1.230110  
264.500000	1.609364  
265.000000	1.684852  
265.500000	1.754933  
266.000000	1.756204  
266.500000	1.834759  
267.000000	1.363014  
267.500000	0.644407  
268.000000	0.350240  
268.500000	-0.053992 
269.000000	-0.754058 
269.500000	-1.462106 
270.000000	-1.964775 
270.500000	-2.315753 
271.000000	-2.312309 
271.500000	-2.620531 
272.000000	-2.915785 
272.500000	-3.009640 
273.000000	-2.864125 
273.500000	-2.692264 
274.000000	-2.492288 
274.500000	-2.152832 
275.000000	-1.699738 
275.500000	-1.305519 
276.000000	-1.470761 
276.500000	-1.745523 
277.000000	-2.140955 
277.500000	-2.486391 
278.000000	-3.051327 
278.500000	-3.681709 
279.000000	-3.777350 
279.500000	-3.442879 
280.000000	-3.072679 
280.500000	-2.791528 
281.000000	-2.123429 
281.500000	-1.397734 
282.000000	-0.382733 
282.500000	0.391929  
283.000000	0.748281  
283.500000	1.151857  
284.000000	1.405444  
284.500000	1.302293  
285.000000	0.698111  
285.500000	0.218753  
286.000000	-0.055954 
286.500000	0.303715  
287.000000	0.923366  
287.500000	1.632922  
288.000000	2.654720  
288.500000	3.791295  
289.000000	4.824394  
289.500000	5.390281  
290.000000	5.594792  
290.500000	5.429355  
291.000000	4.932909  
291.500000	4.312553  
292.000000	3.523521  
292.500000	2.605219  
293.000000	1.436496  
293.500000	0.488423  
294.000000	-0.096036 
294.500000	-0.550113 
295.000000	-0.996409 
295.500000	-1.326896 
296.000000	-1.198546 
296.500000	-0.857854 
297.000000	-0.633958 
297.500000	-0.469777 
298.000000	-0.226802 
298.500000	0.363784  
299.000000	1.140100  
299.500000	1.566233  
300.000000	1.721205  
300.500000	1.832116  
301.000000	1.631010  
301.500000	0.882041  
302.000000	-0.121585 
302.500000	-1.224080 
303.000000	-2.100259 
303.500000	-2.395173 
304.000000	-2.701499 
304.500000	-2.530979 
305.000000	-1.822595 
305.500000	-1.142958 
306.000000	-0.676305 
306.500000	-0.122508 
307.000000	0.267104  
307.500000	0.490145  
308.000000	0.548104  
308.500000	0.276846  
309.000000	0.195274  
309.500000	0.490468  
310.000000	0.541330  
310.500000	0.497645  
311.000000	0.657122  
311.500000	0.940594  
312.000000	1.200331  
312.500000	1.377541  
313.000000	1.255252  
313.500000	1.052513  
314.000000	0.944355  
314.500000	0.686633  
315.000000	0.378661  
315.500000	0.130176  
316.000000	0.260890  
316.500000	0.530109  
317.000000	0.947655  
317.500000	1.391844  
318.000000	1.821943  
318.500000	2.128290  
319.000000	2.279963  
319.500000	2.303032  
320.000000	2.003440  
320.500000	1.735516  
321.000000	1.305764  
321.500000	0.866817  
322.000000	0.311885  
322.500000	-0.023786 
323.000000	-0.258139 
323.500000	-0.353748 
324.000000	-0.272189 
324.500000	-0.069603 
325.000000	0.319475  
325.500000	0.853262  
326.000000	1.442965  
326.500000	1.736680  
327.000000	2.152548  
327.500000	2.466094  
328.000000	2.701655  
328.500000	2.786973  
329.000000	2.671249  
329.500000	2.382211  
330.000000	2.003060  
330.500000	1.646557  
331.000000	0.977760  
331.500000	0.589804  
332.000000	0.379232  
332.500000	0.409391  
333.000000	0.674448  
333.500000	1.013348  
334.000000	1.316402  
334.500000	1.639121  
335.000000	1.828369  
335.500000	1.672423  
336.000000	1.514500  
336.500000	1.299382  
337.000000	0.935343  
337.500000	0.782059  
338.000000	0.755811  
338.500000	0.721361  
339.000000	0.853047  
339.500000	0.901368  
340.000000	0.845669  
340.500000	0.804500  
341.000000	0.795058  
341.500000	0.618470  
342.000000	0.500024  
342.500000	0.431331  
343.000000	0.344562  
343.500000	0.515057  
344.000000	0.541638  
344.500000	0.518638  
345.000000	0.567745  
345.500000	0.676632  
346.000000	0.732086  
346.500000	0.847187  
347.000000	0.920716  
347.500000	1.048368  
348.000000	1.280375  
348.500000	1.412501  
349.000000	1.414285  
349.500000	1.365695  
350.000000	1.300200  
350.500000	1.234877  
351.000000	1.147078  
351.500000	1.008715  
352.000000	0.903409  
352.500000	0.883454  
353.000000	0.891019  
353.500000	0.810250  
354.000000	0.700276  
354.500000	0.648218  
355.000000	0.728185  
355.500000	0.768065  
356.000000	0.782253  
356.500000	0.835634  
357.000000	0.807778  
357.500000	0.898597  
358.000000	1.055469  
358.500000	1.211112  
359.000000	1.334871  
359.500000	1.551924  
360.000000	1.761307  
360.500000	1.922759  
361.000000	1.998361  
361.500000	1.856002  
362.000000	1.635634  
362.500000	1.400772  
363.000000	1.156252  
363.500000	0.864486  
364.000000	0.579594  
364.500000	0.461339  
365.000000	0.460093  
365.500000	0.595991  
366.000000	0.764423  
366.500000	0.937895  
367.000000	1.152329  
367.500000	1.418032  
368.000000	1.623524  
368.500000	1.612529  
369.000000	1.528507  
369.500000	1.412044  
370.000000	1.219218  
370.500000	1.070454  
371.000000	0.924079  
371.500000	0.814268  
372.000000	0.770049  
372.500000	0.766863  
373.000000	0.745470  
373.500000	0.739232  
374.000000	0.764407  
374.500000	0.839789  
375.000000	0.996835  
375.500000	1.142598  
376.000000	1.300668  
376.500000	1.434796  
377.000000	1.568026  
377.500000	1.718429  
378.000000	1.815429  
378.500000	1.886184  
379.000000	1.922669  
379.500000	1.943437  
380.000000	1.917993  
380.500000	1.812683  
381.000000	1.637408  
381.500000	1.428314  
382.000000	1.278534  
382.500000	1.182288  
383.000000	1.169026  
383.500000	1.255475  
384.000000	1.396650  
384.500000	1.573875  
385.000000	1.679728  
385.500000	1.725509  
386.000000	1.667748  
386.500000	1.579320  
387.000000	1.431043  
387.500000	1.307922  
388.000000	1.212068  
388.500000	1.149328  
389.000000	1.154297  
389.500000	1.190946  
390.000000	1.343329  
390.500000	1.498657  
391.000000	1.621728  
391.500000	1.692443  
392.000000	1.697108  
392.500000	1.663622  
393.000000	1.605949  
393.500000	1.486006  
394.000000	1.305316  
394.500000	1.218247  
395.000000	1.199143  
395.500000	1.186178  
396.000000	1.176183  
396.500000	1.172099  
397.000000	1.172157  
397.500000	1.173833  
398.000000	1.168313  
398.500000	1.145804  
399.000000	1.148233  
399.500000	1.205083  
400.000000	1.231217  
400.500000	1.243172  
401.000000	1.204240  
401.500000	1.166643  
402.000000	1.108907  
402.500000	1.039212  
403.000000	1.036170  
403.500000	1.066481  
404.000000	1.144314  
404.500000	1.225423  
405.000000	1.304191  
405.500000	1.340932  
406.000000	1.352202  
406.500000	1.314952  
407.000000	1.227591  
407.500000	1.173593  
408.000000	1.161576  
408.500000	1.186066  
409.000000	1.260440  
409.500000	1.408664  
410.000000	1.549017  
410.500000	1.652344  
411.000000	1.714176  
411.500000	1.709542  
412.000000	1.644618  
412.500000	1.575843  
413.000000	1.469685  
413.500000	1.364362  
414.000000	1.338136  
414.500000	1.336777  
415.000000	1.386482  
415.500000	1.455616  
416.000000	1.511654  
416.500000	1.522707  
417.000000	1.530813  
417.500000	1.500835  
418.000000	1.397299  
418.500000	1.312811  
419.000000	1.190866  
419.500000	1.094714  
420.000000	1.038311  
420.500000	0.997218  
421.000000	0.962982  
421.500000	0.963213  
422.000000	1.003912  
422.500000	0.995753  
423.000000	1.003161  
423.500000	0.980277  
424.000000	0.941791  
424.500000	0.913616  
425.000000	0.912310  
425.500000	0.906162  
426.000000	0.906571  
426.500000	0.951325  
427.000000	0.972446  
427.500000	0.989369  
428.000000	1.004834  
428.500000	0.979374  
429.000000	0.930978  
429.500000	0.901787  
430.000000	0.870762  
430.500000	0.833087  
431.000000	0.809124  
431.500000	0.801822  
432.000000	0.802929  
432.500000	0.830776  
433.000000	0.864965  
433.500000	0.891877  
434.000000	0.943790  
434.500000	0.992586  
435.000000	1.042395  
435.500000	1.048312  
436.000000	1.039709  
436.500000	1.008912  
437.000000	0.985861  
437.500000	0.961893  
438.000000	0.954437  
438.500000	0.979106  
439.000000	1.004917  
439.500000	1.066910  
440.000000	1.112458  
440.500000	1.146195  
441.000000	1.154898  
441.500000	1.155706  
442.000000	1.120973  
442.500000	1.078382  
443.000000	1.058646  
443.500000	1.023973  
444.000000	1.016136  
444.500000	1.007017  

