PE FL                   SPECTRUM    ASCII       PEDS        1.60        
  -1
PM3475~1
23/10/12
11:43:20.00
23/10/12
11:43:20.00


444.500000
1









LS55
40.00
5.00
5.00
SCAN
1
20
100
500
0
500
0
2
0
1
7
ON
500 450 
1 0 0
#HDR
-1
-1
#GR
NM

0.00002384185791015625
0.0
250.000000
0.500000
390
8
5.350368
-5.000000
#DATA
250.000000	-5.000000 
250.500000	-4.232688 
251.000000	-3.757032 
251.500000	-3.635085 
252.000000	-3.491182 
252.500000	-3.458715 
253.000000	-3.367271 
253.500000	-3.300226 
254.000000	-3.103156 
254.500000	-2.697045 
255.000000	-2.258660 
255.500000	-2.207809 
256.000000	-2.608598 
256.500000	-2.935578 
257.000000	-3.203636 
257.500000	-3.282594 
258.000000	-3.126200 
258.500000	-2.873052 
259.000000	-2.243077 
259.500000	-1.465990 
260.000000	-0.890418 
260.500000	-0.968306 
261.000000	-1.159697 
261.500000	-1.562830 
262.000000	-1.941223 
262.500000	-2.300267 
263.000000	-2.505869 
263.500000	-2.192472 
264.000000	-1.428701 
264.500000	-0.429904 
265.000000	0.377039  
265.500000	1.313768  
266.000000	1.907814  
266.500000	2.375049  
267.000000	2.434434  
267.500000	2.155204  
268.000000	1.970733  
268.500000	1.728166  
269.000000	1.406474  
269.500000	1.060880  
270.000000	0.943725  
270.500000	0.629102  
271.000000	0.279322  
271.500000	-0.099778 
272.000000	-0.655880 
272.500000	-0.798357 
273.000000	-0.763797 
273.500000	-0.881876 
274.000000	-0.777392 
274.500000	-0.542998 
275.000000	-0.130589 
275.500000	0.090569  
276.000000	0.485417  
276.500000	0.372322  
277.000000	0.496066  
277.500000	0.509772  
278.000000	-0.230178 
278.500000	-0.722359 
279.000000	-1.240006 
279.500000	-1.295726 
280.000000	-1.215391 
280.500000	-0.781983 
281.000000	-0.150647 
281.500000	0.851077  
282.000000	2.046132  
282.500000	2.381401  
283.000000	2.564819  
283.500000	2.302362  
284.000000	1.845603  
284.500000	1.213214  
285.000000	0.337693  
285.500000	-0.531524 
286.000000	-1.205410 
286.500000	-1.383190 
287.000000	-1.849106 
287.500000	-1.794822 
288.000000	-1.489303 
288.500000	-1.029394 
289.000000	-0.157889 
289.500000	0.626416  
290.000000	1.141005  
290.500000	1.363314  
291.000000	1.306816  
291.500000	0.948416  
292.000000	0.778265  
292.500000	0.489162  
293.000000	-0.099405 
293.500000	-0.449796 
294.000000	-0.395770 
294.500000	-0.543504 
295.000000	-0.721354 
295.500000	-1.214618 
296.000000	-1.819596 
296.500000	-2.017127 
297.000000	-1.863471 
297.500000	-1.563434 
298.000000	-0.913853 
298.500000	0.400131  
299.000000	1.895395  
299.500000	3.508141  
300.000000	4.539119  
300.500000	5.015201  
301.000000	4.978235  
301.500000	4.454964  
302.000000	3.794021  
302.500000	2.917571  
303.000000	2.036325  
303.500000	1.422755  
304.000000	1.159605  
304.500000	1.059774  
305.000000	1.129012  
305.500000	1.169933  
306.000000	1.166016  
306.500000	1.548631  
307.000000	2.373984  
307.500000	3.088844  
308.000000	3.889220  
308.500000	4.541494  
309.000000	4.997503  
309.500000	5.350368  
310.000000	5.345116  
310.500000	4.967951  
311.000000	4.501546  
311.500000	4.359106  
312.000000	4.213256  
312.500000	4.186325  
313.000000	4.026223  
313.500000	3.820556  
314.000000	3.583701  
314.500000	3.186812  
315.000000	2.974249  
315.500000	2.609771  
316.000000	2.415914  
316.500000	2.503118  
317.000000	2.610839  
317.500000	2.684546  
318.000000	2.748956  
318.500000	2.683628  
319.000000	2.460471  
319.500000	2.562354  
320.000000	2.449388  
320.500000	2.340940  
321.000000	2.456647  
321.500000	2.489319  
322.000000	2.739517  
322.500000	3.033592  
323.000000	3.247820  
323.500000	3.375025  
324.000000	3.736541  
324.500000	3.985298  
325.000000	4.219219  
325.500000	4.472239  
326.000000	4.441745  
326.500000	4.447830  
327.000000	4.278720  
327.500000	3.927526  
328.000000	3.549851  
328.500000	3.218378  
329.000000	2.964733  
329.500000	2.921059  
330.000000	2.867883  
330.500000	2.734653  
331.000000	2.743123  
331.500000	2.726616  
332.000000	2.615237  
332.500000	2.586246  
333.000000	2.507100  
333.500000	2.460422  
334.000000	2.607029  
334.500000	2.698654  
335.000000	2.784750  
335.500000	2.828898  
336.000000	2.733331  
336.500000	2.418717  
337.000000	2.112185  
337.500000	1.785765  
338.000000	1.394115  
338.500000	1.195521  
339.000000	1.066719  
339.500000	1.141480  
340.000000	1.327696  
340.500000	1.549399  
341.000000	1.811050  
341.500000	2.143763  
342.000000	2.533416  
342.500000	2.798890  
343.000000	3.052442  
343.500000	3.160369  
344.000000	3.239099  
344.500000	3.243756  
345.000000	3.195436  
345.500000	3.136959  
346.000000	3.128177  
346.500000	3.225772  
347.000000	3.253700  
347.500000	3.382673  
348.000000	3.519122  
348.500000	3.663164  
349.000000	3.747061  
349.500000	3.670413  
350.000000	3.484565  
350.500000	3.278650  
351.000000	3.148732  
351.500000	2.953862  
352.000000	2.944361  
352.500000	2.900886  
353.000000	2.922569  
353.500000	2.972173  
354.000000	2.967565  
354.500000	2.872788  
355.000000	2.683004  
355.500000	2.514757  
356.000000	2.306612  
356.500000	2.329425  
357.000000	2.361059  
357.500000	2.498405  
358.000000	2.687488  
358.500000	2.927801  
359.000000	3.165034  
359.500000	3.232022  
360.000000	3.217264  
360.500000	3.063174  
361.000000	2.930050  
361.500000	2.756835  
362.000000	2.682353  
362.500000	2.470905  
363.000000	2.338577  
363.500000	2.323459  
364.000000	2.283028  
364.500000	2.238254  
365.000000	2.223481  
365.500000	2.156347  
366.000000	2.069565  
366.500000	2.067694  
367.000000	2.005146  
367.500000	1.999671  
368.000000	2.101048  
368.500000	2.187085  
369.000000	2.195915  
369.500000	2.170676  
370.000000	2.061245  
370.500000	1.897907  
371.000000	1.717446  
371.500000	1.472176  
372.000000	1.298749  
372.500000	1.237645  
373.000000	1.288283  
373.500000	1.356373  
374.000000	1.455011  
374.500000	1.565046  
375.000000	1.701870  
375.500000	1.826861  
376.000000	1.874191  
376.500000	1.925850  
377.000000	1.923144  
377.500000	1.911085  
378.000000	1.885302  
378.500000	1.874430  
379.000000	1.876295  
379.500000	1.896565  
380.000000	2.022887  
380.500000	2.132042  
381.000000	2.296617  
381.500000	2.450203  
382.000000	2.589158  
382.500000	2.608555  
383.000000	2.531470  
383.500000	2.393382  
384.000000	2.181915  
384.500000	1.971786  
385.000000	1.736147  
385.500000	1.543967  
386.000000	1.483323  
386.500000	1.591816  
387.000000	1.742544  
387.500000	1.927138  
388.000000	2.080257  
388.500000	2.195888  
389.000000	2.237331  
389.500000	2.134769  
390.000000	1.946790  
390.500000	1.761050  
391.000000	1.645985  
391.500000	1.544826  
392.000000	1.485738  
392.500000	1.397607  
393.000000	1.342213  
393.500000	1.257401  
394.000000	1.092702  
394.500000	0.943595  
395.000000	0.868505  
395.500000	0.853822  
396.000000	0.881119  
396.500000	0.971339  
397.000000	1.069421  
397.500000	1.169870  
398.000000	1.277192  
398.500000	1.291494  
399.000000	1.274297  
399.500000	1.283032  
400.000000	1.294959  
400.500000	1.298033  
401.000000	1.304563  
401.500000	1.305425  
402.000000	1.284959  
402.500000	1.325825  
403.000000	1.352724  
403.500000	1.373132  
404.000000	1.408971  
404.500000	1.450251  
405.000000	1.483891  
405.500000	1.504072  
406.000000	1.503768  
406.500000	1.425759  
407.000000	1.335717  
407.500000	1.276609  
408.000000	1.240831  
408.500000	1.218210  
409.000000	1.213839  
409.500000	1.235677  
410.000000	1.305008  
410.500000	1.398203  
411.000000	1.446666  
411.500000	1.422408  
412.000000	1.374039  
412.500000	1.319305  
413.000000	1.242229  
413.500000	1.180943  
414.000000	1.128941  
414.500000	1.121316  
415.000000	1.155163  
415.500000	1.229298  
416.000000	1.276636  
416.500000	1.289281  
417.000000	1.276487  
417.500000	1.227777  
418.000000	1.172708  
418.500000	1.090288  
419.000000	1.013009  
419.500000	0.940119  
420.000000	0.912881  
420.500000	0.901763  
421.000000	0.884997  
421.500000	0.852063  
422.000000	0.831262  
422.500000	0.825247  
423.000000	0.832466  
423.500000	0.859870  
424.000000	0.882003  
424.500000	0.918148  
425.000000	0.967193  
425.500000	1.001444  
426.000000	1.002055  
426.500000	1.014982  
427.000000	1.009586  
427.500000	1.002076  
428.000000	0.994431  
428.500000	0.990028  
429.000000	0.977151  
429.500000	0.974629  
430.000000	0.965891  
430.500000	0.949874  
431.000000	0.940961  
431.500000	0.930179  
432.000000	0.926472  
432.500000	0.928726  
433.000000	0.942358  
433.500000	0.933085  
434.000000	0.923903  
434.500000	0.874156  
435.000000	0.820067  
435.500000	0.758334  
436.000000	0.697863  
436.500000	0.655196  
437.000000	0.620254  
437.500000	0.612537  
438.000000	0.618173  
438.500000	0.660127  
439.000000	0.703367  
439.500000	0.769718  
440.000000	0.818176  
440.500000	0.842567  
441.000000	0.860379  
441.500000	0.876488  
442.000000	0.884042  
442.500000	0.856873  
443.000000	0.832699  
443.500000	0.810188  
444.000000	0.816802  
444.500000	0.808210  

