PE FL                   SPECTRUM    ASCII       PEDS        1.60        
  -1
PM3405~1
23/10/12
11:38:37.00
23/10/12
11:38:37.00


444.500000
1









LS55
5.00
5.00
5.00
SCAN
1
20
100
500
0
500
0
2
0
1
7
ON
500 450 
1 0 0
#HDR
-1
-1
#GR
NM

0.00002384185791015625
0.0
250.000000
0.500000
390
8
51.198901
-5.000000
#DATA
250.000000	-5.000000 
250.500000	-4.113126 
251.000000	-3.430477 
251.500000	-3.046638 
252.000000	-2.965368 
252.500000	-3.445401 
253.000000	-3.977480 
253.500000	-4.294198 
254.000000	-3.986691 
254.500000	-3.266443 
255.000000	-2.466509 
255.500000	-1.576035 
256.000000	-0.525627 
256.500000	0.451210  
257.000000	1.176908  
257.500000	1.329014  
258.000000	1.252252  
258.500000	1.253143  
259.000000	1.317955  
259.500000	0.620503  
260.000000	-0.448991 
260.500000	-1.017581 
261.000000	-1.262124 
261.500000	-1.042776 
262.000000	-0.912722 
262.500000	-0.545783 
263.000000	0.146661  
263.500000	0.908550  
264.000000	0.889488  
264.500000	0.432904  
265.000000	0.189332  
265.500000	0.038901  
266.000000	0.083994  
266.500000	-0.007027 
267.000000	0.100223  
267.500000	0.433991  
268.000000	0.563603  
268.500000	0.038150  
269.000000	-0.998417 
269.500000	-2.075142 
270.000000	-3.211993 
270.500000	-4.061796 
271.000000	-4.576650 
271.500000	-4.496731 
272.000000	-3.737113 
272.500000	-2.844425 
273.000000	-2.023917 
273.500000	-1.247615 
274.000000	-0.598786 
274.500000	-0.685384 
275.000000	-1.093366 
275.500000	-1.719944 
276.000000	-2.605549 
276.500000	-3.496402 
277.000000	-4.122133 
277.500000	-4.263157 
278.000000	-3.785072 
278.500000	-2.859933 
279.000000	-2.079194 
279.500000	-1.493180 
280.000000	-0.860230 
280.500000	-0.522820 
281.000000	-0.606056 
281.500000	-1.090534 
282.000000	-1.671735 
282.500000	-2.041952 
283.000000	-2.296130 
283.500000	-2.597754 
284.000000	-2.988318 
284.500000	-2.915902 
285.000000	-2.748871 
285.500000	-2.582343 
286.000000	-2.594138 
286.500000	-2.604428 
287.000000	-2.285715 
287.500000	-1.922642 
288.000000	-1.493689 
288.500000	-1.161098 
289.000000	-0.595899 
289.500000	-0.186229 
290.000000	-0.105952 
290.500000	-0.379932 
291.000000	-0.826327 
291.500000	-1.133383 
292.000000	-1.424093 
292.500000	-1.592658 
293.000000	-1.259418 
293.500000	-0.384294 
294.000000	0.864216  
294.500000	1.759253  
295.000000	2.374435  
295.500000	2.649173  
296.000000	2.754745  
296.500000	2.276564  
297.000000	1.407162  
297.500000	0.801583  
298.000000	0.289940  
298.500000	0.328874  
299.000000	0.439582  
299.500000	0.647794  
300.000000	1.036623  
300.500000	1.565616  
301.000000	1.777886  
301.500000	1.322289  
302.000000	1.044370  
302.500000	0.434014  
303.000000	-0.110501 
303.500000	-0.718757 
304.000000	-1.382209 
304.500000	-2.011009 
305.000000	-2.132164 
305.500000	-1.946186 
306.000000	-2.027413 
306.500000	-1.621647 
307.000000	-1.098889 
307.500000	-0.206787 
308.000000	0.975452  
308.500000	2.158117  
309.000000	3.048219  
309.500000	3.924140  
310.000000	4.688438  
310.500000	4.878049  
311.000000	4.735864  
311.500000	4.070569  
312.000000	3.361819  
312.500000	2.695245  
313.000000	2.167558  
313.500000	1.724545  
314.000000	1.900084  
314.500000	2.318288  
315.000000	2.981587  
315.500000	3.821676  
316.000000	4.540642  
316.500000	5.163331  
317.000000	5.550314  
317.500000	5.609066  
318.000000	5.333419  
318.500000	5.480078  
319.000000	5.603817  
319.500000	5.892022  
320.000000	6.390011  
320.500000	7.212444  
321.000000	8.177172  
321.500000	9.080083  
322.000000	9.746811  
322.500000	9.792215  
323.000000	9.948801  
323.500000	9.944898  
324.000000	9.833380  
324.500000	9.701959  
325.000000	9.750097  
325.500000	9.911010  
326.000000	10.246330 
326.500000	10.710942 
327.000000	10.955687 
327.500000	11.194934 
328.000000	11.338194 
328.500000	11.432294 
329.000000	11.503084 
329.500000	11.647052 
330.000000	11.733747 
330.500000	12.015422 
331.000000	12.450371 
331.500000	12.774725 
332.000000	12.938255 
332.500000	12.914393 
333.000000	12.733939 
333.500000	12.566565 
334.000000	12.461951 
334.500000	12.231611 
335.000000	12.241776 
335.500000	12.448720 
336.000000	12.877397 
336.500000	13.323476 
337.000000	13.643346 
337.500000	13.972002 
338.000000	14.511556 
338.500000	15.128904 
339.000000	15.589962 
339.500000	16.054408 
340.000000	16.496762 
340.500000	16.989020 
341.000000	17.257017 
341.500000	17.253832 
342.000000	17.127985 
342.500000	17.109733 
343.000000	17.086521 
343.500000	17.022436 
344.000000	16.971736 
344.500000	17.079188 
345.000000	17.411441 
345.500000	17.686046 
346.000000	17.853873 
346.500000	18.143966 
347.000000	18.479621 
347.500000	18.943736 
348.000000	19.471363 
348.500000	19.755575 
349.000000	20.234195 
349.500000	20.878655 
350.000000	21.310941 
350.500000	21.665294 
351.000000	22.085005 
351.500000	22.455740 
352.000000	22.992330 
352.500000	23.885765 
353.000000	24.648393 
353.500000	25.543629 
354.000000	26.901868 
354.500000	28.286951 
355.000000	29.918446 
355.500000	31.877681 
356.000000	33.911353 
356.500000	35.907633 
357.000000	37.807260 
357.500000	39.452921 
358.000000	40.643288 
358.500000	41.681861 
359.000000	42.022355 
359.500000	42.101420 
360.000000	42.245667 
360.500000	42.642313 
361.000000	43.254358 
361.500000	44.018505 
362.000000	45.006981 
362.500000	46.107329 
363.000000	47.185295 
363.500000	47.840463 
364.000000	48.010093 
364.500000	47.704095 
365.000000	47.313885 
365.500000	47.022709 
366.000000	46.652135 
366.500000	46.148112 
367.000000	45.888405 
367.500000	45.548616 
368.000000	45.110062 
368.500000	44.604154 
369.000000	43.618507 
369.500000	42.535733 
370.000000	41.542974 
370.500000	40.852536 
371.000000	40.232332 
371.500000	40.160521 
372.000000	40.365555 
372.500000	40.892585 
373.000000	41.770295 
373.500000	42.514729 
374.000000	43.177510 
374.500000	43.644567 
375.000000	44.221595 
375.500000	44.572121 
376.000000	45.064283 
376.500000	45.579330 
377.000000	46.022066 
377.500000	46.581973 
378.000000	47.051303 
378.500000	47.323734 
379.000000	47.062185 
379.500000	46.552078 
380.000000	45.622246 
380.500000	44.826186 
381.000000	44.025473 
381.500000	43.192467 
382.000000	42.854155 
382.500000	42.799918 
383.000000	43.150114 
383.500000	43.492541 
384.000000	43.653927 
384.500000	43.289932 
385.000000	42.695841 
385.500000	41.711978 
386.000000	40.209725 
386.500000	38.621599 
387.000000	36.781027 
387.500000	35.086174 
388.000000	33.616790 
388.500000	32.398798 
389.000000	31.168642 
389.500000	29.950057 
390.000000	28.645082 
390.500000	27.250288 
391.000000	25.864357 
391.500000	24.379358 
392.000000	22.900842 
392.500000	21.486310 
393.000000	20.450216 
393.500000	19.733046 
394.000000	19.149686 
394.500000	18.622745 
395.000000	18.160064 
395.500000	17.680068 
396.000000	17.353574 
396.500000	17.110528 
397.000000	16.861954 
397.500000	16.710866 
398.000000	16.568852 
398.500000	16.472238 
399.000000	16.341908 
399.500000	16.034101 
400.000000	15.461327 
400.500000	14.841638 
401.000000	14.172320 
401.500000	13.568279 
402.000000	13.045014 
402.500000	12.538286 
403.000000	12.171956 
403.500000	11.952898 
404.000000	11.761477 
404.500000	11.587040 
405.000000	11.417392 
405.500000	11.216440 
406.000000	10.927790 
406.500000	10.554602 
407.000000	10.132333 
407.500000	9.706046  
408.000000	9.269653  
408.500000	8.848841  
409.000000	8.559309  
409.500000	8.453069  
410.000000	8.617041  
410.500000	8.815190  
411.000000	8.990415  
411.500000	9.225916  
412.000000	9.387460  
412.500000	9.521392  
413.000000	9.648325  
413.500000	9.774403  
414.000000	9.865397  
414.500000	10.176256 
415.000000	10.572892 
415.500000	11.020616 
416.000000	11.608972 
416.500000	12.115443 
417.000000	12.590552 
417.500000	13.094428 
418.000000	13.544216 
418.500000	13.868921 
419.000000	14.195286 
419.500000	14.542250 
420.000000	14.995584 
420.500000	15.591683 
421.000000	16.109110 
421.500000	16.640251 
422.000000	17.282857 
422.500000	17.945472 
423.000000	18.662560 
423.500000	19.382115 
424.000000	20.052755 
424.500000	20.866642 
425.000000	21.857742 
425.500000	22.707421 
426.000000	23.309130 
426.500000	23.658001 
427.000000	23.588089 
427.500000	23.381951 
428.000000	22.979650 
428.500000	22.348462 
429.000000	21.818123 
429.500000	21.679447 
430.000000	21.818485 
430.500000	22.314955 
431.000000	23.193364 
431.500000	24.262535 
432.000000	25.681296 
432.500000	27.576283 
433.000000	29.639357 
433.500000	31.737943 
434.000000	33.947785 
434.500000	36.138767 
435.000000	38.104921 
435.500000	39.880020 
436.000000	41.176802 
436.500000	41.876514 
437.000000	42.400209 
437.500000	42.619218 
438.000000	42.581606 
438.500000	42.364288 
439.000000	42.203096 
439.500000	42.053366 
440.000000	42.225469 
440.500000	42.692003 
441.000000	43.222144 
441.500000	44.193857 
442.000000	45.345505 
442.500000	46.742725 
443.000000	48.167121 
443.500000	49.503414 
444.000000	50.447100 
444.500000	51.198901 

