PE FL                   SPECTRUM    ASCII       PEDS        1.60        
  -1
PM3465~1
23/10/12
11:42:40.00
23/10/12
11:42:40.00


444.500000
1









LS55
35.00
5.00
5.00
SCAN
1
20
100
500
0
500
0
2
0
1
7
ON
500 450 
1 0 0
#HDR
-1
-1
#GR
NM

0.00002384185791015625
0.0
250.000000
0.500000
390
8
4.500738
-4.999999
#DATA
250.000000	-4.999999 
250.500000	-4.470292 
251.000000	-4.093598 
251.500000	-3.837179 
252.000000	-3.774652 
252.500000	-3.695709 
253.000000	-3.677726 
253.500000	-3.714383 
254.000000	-3.939754 
254.500000	-4.001444 
255.000000	-4.131774 
255.500000	-4.073597 
256.000000	-3.839281 
256.500000	-3.619718 
257.000000	-3.389549 
257.500000	-2.988168 
258.000000	-2.418753 
258.500000	-2.188978 
259.000000	-1.905529 
259.500000	-1.835148 
260.000000	-1.786597 
260.500000	-1.618701 
261.000000	-1.536632 
261.500000	-1.716531 
262.000000	-1.895759 
262.500000	-1.843448 
263.000000	-2.018454 
263.500000	-2.150546 
264.000000	-2.305992 
264.500000	-2.406374 
265.000000	-2.279577 
265.500000	-2.140015 
266.000000	-2.142116 
266.500000	-2.177825 
267.000000	-1.760949 
267.500000	-1.436911 
268.000000	-1.420324 
268.500000	-1.215021 
269.000000	-0.888507 
269.500000	-0.306266 
270.000000	-0.001824 
270.500000	0.050217  
271.000000	-0.216004 
271.500000	-0.163916 
272.000000	-0.364109 
272.500000	-0.688087 
273.000000	-0.810580 
273.500000	-0.906371 
274.000000	-0.767776 
274.500000	-1.010406 
275.000000	-1.283932 
275.500000	-1.484371 
276.000000	-1.125360 
276.500000	-0.747415 
277.000000	-0.150293 
277.500000	0.910231  
278.000000	2.201532  
278.500000	3.384051  
279.000000	3.861466  
279.500000	3.802182  
280.000000	3.033704  
280.500000	2.096389  
281.000000	0.709289  
281.500000	-0.641562 
282.000000	-1.501148 
282.500000	-1.877490 
283.000000	-1.844226 
283.500000	-1.529720 
284.000000	-0.814859 
284.500000	-0.482425 
285.000000	-0.278489 
285.500000	-0.095107 
286.000000	-0.079139 
286.500000	0.037302  
287.000000	0.286631  
287.500000	0.012046  
288.000000	0.105714  
288.500000	0.863624  
289.000000	1.472457  
289.500000	1.821760  
290.000000	2.086387  
290.500000	2.209445  
291.000000	2.586222  
291.500000	3.103662  
292.000000	2.740559  
292.500000	2.547550  
293.000000	2.710849  
293.500000	3.016576  
294.000000	2.952692  
294.500000	2.643086  
295.000000	1.867109  
295.500000	1.241414  
296.000000	0.858309  
296.500000	-0.221101 
297.000000	-0.786141 
297.500000	-1.077218 
298.000000	-0.766282 
298.500000	-0.175272 
299.000000	0.559511  
299.500000	1.108063  
300.000000	1.662181  
300.500000	1.861112  
301.000000	1.277991  
301.500000	0.928460  
302.000000	0.725575  
302.500000	0.577400  
303.000000	0.698954  
303.500000	1.048939  
304.000000	1.643196  
304.500000	2.259507  
305.000000	2.560240  
305.500000	2.132757  
306.000000	1.625619  
306.500000	1.271263  
307.000000	0.706925  
307.500000	0.588709  
308.000000	0.591102  
308.500000	1.131110  
309.000000	1.974910  
309.500000	2.859153  
310.000000	3.486241  
310.500000	3.784932  
311.000000	4.133421  
311.500000	3.944356  
312.000000	3.942110  
312.500000	3.741319  
313.000000	3.630479  
313.500000	3.465392  
314.000000	3.277855  
314.500000	3.197398  
315.000000	3.227876  
315.500000	3.513095  
316.000000	3.529936  
316.500000	3.601648  
317.000000	3.499463  
317.500000	3.509835  
318.000000	3.375632  
318.500000	3.100825  
319.000000	2.932721  
319.500000	2.705196  
320.000000	2.712400  
320.500000	2.956577  
321.000000	3.219487  
321.500000	3.449520  
322.000000	3.877277  
322.500000	4.113781  
323.000000	4.268282  
323.500000	4.500738  
324.000000	4.486718  
324.500000	4.369068  
325.000000	4.385450  
325.500000	4.284240  
326.000000	4.132962  
326.500000	4.079993  
327.000000	3.894056  
327.500000	3.689546  
328.000000	3.610146  
328.500000	3.488872  
329.000000	3.314811  
329.500000	3.094933  
330.000000	2.991810  
330.500000	2.970811  
331.000000	3.045296  
331.500000	3.099332  
332.000000	3.140024  
332.500000	3.026891  
333.000000	2.845781  
333.500000	2.722284  
334.000000	2.432858  
334.500000	2.258082  
335.000000	2.201750  
335.500000	2.210585  
336.000000	2.403300  
336.500000	2.758186  
337.000000	2.993575  
337.500000	3.316081  
338.000000	3.629446  
338.500000	3.740194  
339.000000	3.793351  
339.500000	3.776710  
340.000000	3.725694  
340.500000	3.678518  
341.000000	3.701067  
341.500000	3.607634  
342.000000	3.544340  
342.500000	3.370389  
343.000000	3.188229  
343.500000	2.935290  
344.000000	2.555697  
344.500000	2.088788  
345.000000	1.724357  
345.500000	1.533176  
346.000000	1.394580  
346.500000	1.468287  
347.000000	1.538521  
347.500000	1.619691  
348.000000	1.697414  
348.500000	1.690269  
349.000000	1.529440  
349.500000	1.391775  
350.000000	1.239065  
350.500000	1.068073  
351.000000	0.978383  
351.500000	0.846976  
352.000000	0.807055  
352.500000	0.805473  
353.000000	0.798761  
353.500000	0.731145  
354.000000	0.743982  
354.500000	0.734337  
355.000000	0.728874  
355.500000	0.768359  
356.000000	0.755149  
356.500000	0.831332  
357.000000	1.000525  
357.500000	1.148392  
358.000000	1.258922  
358.500000	1.362721  
359.000000	1.302122  
359.500000	1.214828  
360.000000	1.136206  
360.500000	0.970676  
361.000000	0.831474  
361.500000	0.784345  
362.000000	0.769370  
362.500000	0.812839  
363.000000	0.883122  
363.500000	0.870764  
364.000000	0.867972  
364.500000	0.934546  
365.000000	1.079934  
365.500000	1.234588  
366.000000	1.303920  
366.500000	1.341102  
367.000000	1.301316  
367.500000	1.250916  
368.000000	1.122285  
368.500000	0.940174  
369.000000	0.804724  
369.500000	0.775192  
370.000000	0.888645  
370.500000	1.020700  
371.000000	1.198603  
371.500000	1.345762  
372.000000	1.472755  
372.500000	1.564017  
373.000000	1.581965  
373.500000	1.558720  
374.000000	1.522169  
374.500000	1.519060  
375.000000	1.535311  
375.500000	1.543002  
376.000000	1.535316  
376.500000	1.508711  
377.000000	1.511251  
377.500000	1.544889  
378.000000	1.576644  
378.500000	1.552822  
379.000000	1.455871  
379.500000	1.448415  
380.000000	1.437301  
380.500000	1.480874  
381.000000	1.483408  
381.500000	1.497876  
382.000000	1.540339  
382.500000	1.562165  
383.000000	1.511711  
383.500000	1.356713  
384.000000	1.268987  
384.500000	1.176520  
385.000000	1.117973  
385.500000	1.065978  
386.000000	1.084304  
386.500000	1.172681  
387.000000	1.279227  
387.500000	1.331833  
388.000000	1.278310  
388.500000	1.199671  
389.000000	1.088704  
389.500000	0.945067  
390.000000	0.807454  
390.500000	0.734120  
391.000000	0.737249  
391.500000	0.769178  
392.000000	0.800528  
392.500000	0.850354  
393.000000	0.963080  
393.500000	1.074985  
394.000000	1.140504  
394.500000	1.213091  
395.000000	1.262359  
395.500000	1.308763  
396.000000	1.346446  
396.500000	1.346976  
397.000000	1.352139  
397.500000	1.421951  
398.000000	1.472331  
398.500000	1.483460  
399.000000	1.520986  
399.500000	1.524885  
400.000000	1.491876  
400.500000	1.427578  
401.000000	1.362363  
401.500000	1.316251  
402.000000	1.323577  
402.500000	1.329248  
403.000000	1.314022  
403.500000	1.306012  
404.000000	1.245175  
404.500000	1.109182  
405.000000	0.941875  
405.500000	0.803089  
406.000000	0.752935  
406.500000	0.770563  
407.000000	0.844375  
407.500000	0.952338  
408.000000	1.111003  
408.500000	1.286752  
409.000000	1.407239  
409.500000	1.442480  
410.000000	1.412503  
410.500000	1.379486  
411.000000	1.328995  
411.500000	1.262821  
412.000000	1.164293  
412.500000	1.077560  
413.000000	1.055397  
413.500000	1.046762  
414.000000	1.050819  
414.500000	1.054828  
415.000000	1.080655  
415.500000	1.105313  
416.000000	1.129119  
416.500000	1.132171  
417.000000	1.090465  
417.500000	1.043872  
418.000000	0.963862  
418.500000	0.875166  
419.000000	0.810150  
419.500000	0.795401  
420.000000	0.818314  
420.500000	0.856651  
421.000000	0.920405  
421.500000	0.971020  
422.000000	1.022132  
422.500000	1.023753  
423.000000	0.983449  
423.500000	0.927539  
424.000000	0.872098  
424.500000	0.835437  
425.000000	0.810311  
425.500000	0.839743  
426.000000	0.895972  
426.500000	0.976199  
427.000000	1.036810  
427.500000	1.069823  
428.000000	1.074441  
428.500000	1.040881  
429.000000	0.988798  
429.500000	0.933234  
430.000000	0.899751  
430.500000	0.896232  
431.000000	0.905920  
431.500000	0.920222  
432.000000	0.944324  
432.500000	0.977396  
433.000000	1.000058  
433.500000	0.993200  
434.000000	0.959090  
434.500000	0.917066  
435.000000	0.904804  
435.500000	0.906481  
436.000000	0.909894  
436.500000	0.910494  
437.000000	0.912438  
437.500000	0.908002  
438.000000	0.889649  
438.500000	0.870437  
439.000000	0.842489  
439.500000	0.827959  
440.000000	0.832908  
440.500000	0.846929  
441.000000	0.855362  
441.500000	0.857835  
442.000000	0.844585  
442.500000	0.822957  
443.000000	0.799508  
443.500000	0.772151  
444.000000	0.738982  
444.500000	0.728937  

