PE FL                   SPECTRUM    ASCII       PEDS        1.60        
  -1
PM3485~1
23/10/12
11:44:01.00
23/10/12
11:44:01.00


444.500000
1









LS55
45.00
5.00
5.00
SCAN
1
20
100
500
0
500
0
2
0
1
7
ON
500 450 
1 0 0
#HDR
-1
-1
#GR
NM

0.00002384185791015625
0.0
250.000000
0.500000
390
8
4.318070
-3.460576
#DATA
250.000000	-1.394000 
250.500000	-1.338786 
251.000000	-1.215431 
251.500000	-0.935157 
252.000000	-0.100819 
252.500000	0.680565  
253.000000	1.753166  
253.500000	2.775989  
254.000000	3.293477  
254.500000	3.406643  
255.000000	3.185407  
255.500000	2.394778  
256.000000	1.145600  
256.500000	0.431098  
257.000000	-0.369278 
257.500000	-0.773826 
258.000000	-0.824629 
258.500000	-0.796466 
259.000000	-0.257076 
259.500000	0.594794  
260.000000	1.241002  
260.500000	1.367386  
261.000000	1.628622  
261.500000	1.504179  
262.000000	1.098764  
262.500000	0.185156  
263.000000	-1.094138 
263.500000	-2.006712 
264.000000	-2.571843 
264.500000	-3.159283 
265.000000	-3.460576 
265.500000	-3.267924 
266.000000	-2.713490 
266.500000	-2.094461 
267.000000	-1.768186 
267.500000	-1.799686 
268.000000	-1.854511 
268.500000	-1.869628 
269.000000	-2.274184 
269.500000	-2.419887 
270.000000	-2.205436 
270.500000	-1.740980 
271.000000	-1.334368 
271.500000	-0.681964 
272.000000	0.061887  
272.500000	0.792887  
273.000000	1.564517  
273.500000	1.677192  
274.000000	1.563863  
274.500000	1.607264  
275.000000	1.434975  
275.500000	0.811086  
276.000000	0.452103  
276.500000	0.271611  
277.000000	0.004954  
277.500000	-0.212271 
278.000000	-0.633172 
278.500000	-1.317317 
279.000000	-1.584687 
279.500000	-1.828593 
280.000000	-2.197654 
280.500000	-2.270437 
281.000000	-1.930316 
281.500000	-1.565664 
282.000000	-1.206863 
282.500000	-0.765214 
283.000000	-0.783024 
283.500000	-0.872077 
284.000000	-1.062835 
284.500000	-1.307423 
285.000000	-1.399308 
285.500000	-1.306814 
286.000000	-1.075695 
286.500000	-0.984808 
287.000000	-0.549148 
287.500000	-0.101724 
288.000000	0.249009  
288.500000	0.431648  
289.000000	0.358941  
289.500000	0.357822  
290.000000	0.337847  
290.500000	0.303943  
291.000000	0.082890  
291.500000	-0.082760 
292.000000	0.060303  
292.500000	0.425718  
293.000000	0.737138  
293.500000	0.553529  
294.000000	0.375468  
294.500000	0.069703  
295.000000	-0.325849 
295.500000	-0.591699 
296.000000	-0.913967 
296.500000	-0.698779 
297.000000	0.133283  
297.500000	1.168075  
298.000000	1.946973  
298.500000	2.801079  
299.000000	3.381001  
299.500000	3.409290  
300.000000	3.209466  
300.500000	2.444380  
301.000000	1.903639  
301.500000	1.462235  
302.000000	1.248829  
302.500000	1.107651  
303.000000	1.369417  
303.500000	1.691572  
304.000000	1.965974  
304.500000	2.065079  
305.000000	2.018621  
305.500000	2.204936  
306.000000	2.240644  
306.500000	2.309547  
307.000000	2.591949  
307.500000	3.076962  
308.000000	3.613918  
308.500000	4.069832  
309.000000	4.220281  
309.500000	4.318070  
310.000000	4.257694  
310.500000	3.863493  
311.000000	3.263193  
311.500000	2.831506  
312.000000	2.527699  
312.500000	2.407959  
313.000000	2.401835  
313.500000	2.380005  
314.000000	2.689395  
314.500000	2.786461  
315.000000	2.963456  
315.500000	3.047951  
316.000000	3.218680  
316.500000	3.191389  
317.000000	3.075862  
317.500000	2.833626  
318.000000	2.715061  
318.500000	2.812226  
319.000000	2.580488  
319.500000	2.279644  
320.000000	2.101469  
320.500000	2.295018  
321.000000	2.575195  
321.500000	2.690242  
322.000000	2.586759  
322.500000	2.607031  
323.000000	2.799979  
323.500000	2.897753  
324.000000	2.771541  
324.500000	2.535453  
325.000000	2.460051  
325.500000	2.541630  
326.000000	2.670728  
326.500000	2.662358  
327.000000	2.757960  
327.500000	2.751788  
328.000000	2.797834  
328.500000	2.762767  
329.000000	2.577304  
329.500000	2.251809  
330.000000	1.944678  
330.500000	1.768512  
331.000000	1.526499  
331.500000	1.405812  
332.000000	1.047917  
332.500000	0.655247  
333.000000	0.462257  
333.500000	0.378715  
334.000000	0.252272  
334.500000	0.222038  
335.000000	0.375781  
335.500000	0.583003  
336.000000	0.982557  
336.500000	1.155742  
337.000000	1.167342  
337.500000	1.126083  
338.000000	0.980556  
338.500000	0.737167  
339.000000	0.603714  
339.500000	0.644265  
340.000000	0.874608  
340.500000	1.339492  
341.000000	1.819173  
341.500000	2.250958  
342.000000	2.533065  
342.500000	2.710656  
343.000000	2.721359  
343.500000	2.630493  
344.000000	2.479398  
344.500000	2.413020  
345.000000	2.320071  
345.500000	2.263149  
346.000000	2.265959  
346.500000	2.156670  
347.000000	2.122793  
347.500000	2.153665  
348.000000	2.191108  
348.500000	2.278140  
349.000000	2.486511  
349.500000	2.518120  
350.000000	2.470579  
350.500000	2.340256  
351.000000	2.047425  
351.500000	1.763715  
352.000000	1.509186  
352.500000	1.297150  
353.000000	1.270572  
353.500000	1.521810  
354.000000	1.777723  
354.500000	2.015036  
355.000000	2.278603  
355.500000	2.511169  
356.000000	2.685536  
356.500000	2.700191  
357.000000	2.583288  
357.500000	2.462974  
358.000000	2.445678  
358.500000	2.383716  
359.000000	2.255149  
359.500000	2.168928  
360.000000	2.242906  
360.500000	2.421301  
361.000000	2.456400  
361.500000	2.431207  
362.000000	2.285136  
362.500000	2.202804  
363.000000	2.120792  
363.500000	2.010448  
364.000000	1.970050  
364.500000	2.127812  
365.000000	2.534245  
365.500000	2.908691  
366.000000	3.282278  
366.500000	3.478399  
367.000000	3.591661  
367.500000	3.524315  
368.000000	3.326583  
368.500000	3.096503  
369.000000	2.871931  
369.500000	2.807743  
370.000000	2.768653  
370.500000	2.848185  
371.000000	2.986145  
371.500000	3.163826  
372.000000	3.329814  
372.500000	3.456119  
373.000000	3.583702  
373.500000	3.586854  
374.000000	3.553569  
374.500000	3.430154  
375.000000	3.234081  
375.500000	3.096610  
376.000000	2.990911  
376.500000	2.888537  
377.000000	2.846175  
377.500000	2.844209  
378.000000	2.807723  
378.500000	2.755409  
379.000000	2.659037  
379.500000	2.544594  
380.000000	2.490467  
380.500000	2.431968  
381.000000	2.376082  
381.500000	2.409209  
382.000000	2.480462  
382.500000	2.577652  
383.000000	2.639876  
383.500000	2.647079  
384.000000	2.607991  
384.500000	2.650067  
385.000000	2.673972  
385.500000	2.638046  
386.000000	2.654424  
386.500000	2.705542  
387.000000	2.831567  
387.500000	2.986479  
388.000000	3.044032  
388.500000	3.065676  
389.000000	3.140762  
389.500000	3.123130  
390.000000	3.001243  
390.500000	2.772125  
391.000000	2.500183  
391.500000	2.250553  
392.000000	2.086527  
392.500000	1.894669  
393.000000	1.700958  
393.500000	1.628856  
394.000000	1.617303  
394.500000	1.653495  
395.000000	1.673116  
395.500000	1.709004  
396.000000	1.755617  
396.500000	1.849220  
397.000000	1.886072  
397.500000	1.867898  
398.000000	1.866240  
398.500000	1.817074  
399.000000	1.779995  
399.500000	1.742404  
400.000000	1.684883  
400.500000	1.601805  
401.000000	1.540952  
401.500000	1.509962  
402.000000	1.494366  
402.500000	1.505865  
403.000000	1.506635  
403.500000	1.519813  
404.000000	1.567522  
404.500000	1.602144  
405.000000	1.589839  
405.500000	1.579271  
406.000000	1.565593  
406.500000	1.575256  
407.000000	1.624762  
407.500000	1.634771  
408.000000	1.645390  
408.500000	1.692116  
409.000000	1.700241  
409.500000	1.670345  
410.000000	1.600483  
410.500000	1.512898  
411.000000	1.436567  
411.500000	1.375784  
412.000000	1.283606  
412.500000	1.227048  
413.000000	1.228811  
413.500000	1.222193  
414.000000	1.226872  
414.500000	1.207807  
415.000000	1.187747  
415.500000	1.148054  
416.000000	1.114877  
416.500000	1.047437  
417.000000	0.990536  
417.500000	0.969310  
418.000000	0.977021  
418.500000	1.023831  
419.000000	1.083901  
419.500000	1.153561  
420.000000	1.220033  
420.500000	1.271584  
421.000000	1.272585  
421.500000	1.238129  
422.000000	1.153154  
422.500000	1.070486  
423.000000	0.993680  
423.500000	0.961830  
424.000000	0.983074  
424.500000	1.033062  
425.000000	1.130517  
425.500000	1.242281  
426.000000	1.343672  
426.500000	1.384251  
427.000000	1.376035  
427.500000	1.284438  
428.000000	1.147898  
428.500000	1.008972  
429.000000	0.861713  
429.500000	0.762082  
430.000000	0.708596  
430.500000	0.705072  
431.000000	0.742869  
431.500000	0.827161  
432.000000	0.894185  
432.500000	0.939643  
433.000000	0.970760  
433.500000	0.964476  
434.000000	0.948840  
434.500000	0.917101  
435.000000	0.878702  
435.500000	0.859049  
436.000000	0.860788  
436.500000	0.864789  
437.000000	0.857842  
437.500000	0.867262  
438.000000	0.862755  
438.500000	0.844558  
439.000000	0.805451  
439.500000	0.773779  
440.000000	0.762780  
440.500000	0.754287  
441.000000	0.762053  
441.500000	0.754596  
442.000000	0.777161  
442.500000	0.800913  
443.000000	0.815546  
443.500000	0.802800  
444.000000	0.789757  
444.500000	0.806103  

