PE FL                   SPECTRUM    ASCII       PEDS        1.60        
  -1
PM3445~1
23/10/12
11:41:19.00
23/10/12
11:41:19.00


444.500000
1









LS55
25.00
5.00
5.00
SCAN
1
20
100
500
0
500
0
2
0
1
7
ON
500 450 
1 0 0
#HDR
-1
-1
#GR
NM

0.00002384185791015625
0.0
250.000000
0.500000
390
8
5.077626
-5.000000
#DATA
250.000000	-5.000000 
250.500000	-4.153501 
251.000000	-3.568873 
251.500000	-3.285150 
252.000000	-3.043635 
252.500000	-3.018732 
253.000000	-3.185947 
253.500000	-3.296769 
254.000000	-3.206679 
254.500000	-2.743388 
255.000000	-2.097388 
255.500000	-1.439013 
256.000000	-1.086748 
256.500000	-0.729631 
257.000000	-0.930690 
257.500000	-1.444472 
258.000000	-2.045957 
258.500000	-2.577099 
259.000000	-2.923728 
259.500000	-3.175321 
260.000000	-3.109590 
260.500000	-3.132132 
261.000000	-2.825225 
261.500000	-2.994447 
262.000000	-3.296164 
262.500000	-3.566497 
263.000000	-3.715701 
263.500000	-3.709670 
264.000000	-3.714838 
264.500000	-3.688280 
265.000000	-3.629431 
265.500000	-3.387790 
266.000000	-3.480191 
266.500000	-3.740696 
267.000000	-4.009676 
267.500000	-4.298568 
268.000000	-4.455723 
268.500000	-4.087436 
269.000000	-3.294447 
269.500000	-2.200823 
270.000000	-0.557066 
270.500000	1.197801  
271.000000	2.655437  
271.500000	3.650697  
272.000000	3.583682  
272.500000	2.604900  
273.000000	1.483583  
273.500000	0.273750  
274.000000	-1.171208 
274.500000	-2.132322 
275.000000	-2.603364 
275.500000	-2.473743 
276.000000	-1.798751 
276.500000	-1.364785 
277.000000	-1.538690 
277.500000	-1.549156 
278.000000	-1.263162 
278.500000	-1.223103 
279.000000	-1.149913 
279.500000	-1.244504 
280.000000	-0.961580 
280.500000	-0.294726 
281.000000	0.303375  
281.500000	0.470593  
282.000000	0.920744  
282.500000	1.679758  
283.000000	2.397869  
283.500000	2.932438  
284.000000	3.111893  
284.500000	3.151623  
285.000000	3.192131  
285.500000	3.203632  
286.000000	2.709848  
286.500000	2.259539  
287.000000	2.084288  
287.500000	1.989375  
288.000000	1.988018  
288.500000	2.066400  
289.000000	2.161935  
289.500000	2.501771  
290.000000	2.730898  
290.500000	2.606555  
291.000000	2.363980  
291.500000	2.136119  
292.000000	1.786791  
292.500000	1.354226  
293.000000	0.770279  
293.500000	0.162470  
294.000000	0.069376  
294.500000	0.319629  
295.000000	0.641251  
295.500000	0.988432  
296.000000	1.412242  
296.500000	1.797552  
297.000000	1.991365  
297.500000	1.613301  
298.000000	0.772708  
298.500000	0.135874  
299.000000	-0.297335 
299.500000	-0.632260 
300.000000	-0.994965 
300.500000	-1.109512 
301.000000	-0.712782 
301.500000	0.124652  
302.000000	1.038759  
302.500000	1.715618  
303.000000	2.533617  
303.500000	3.433087  
304.000000	4.279532  
304.500000	4.631615  
305.000000	4.696440  
305.500000	4.527699  
306.000000	4.343379  
306.500000	4.294837  
307.000000	4.189113  
307.500000	4.109649  
308.000000	4.265903  
308.500000	4.759190  
309.000000	4.991175  
309.500000	5.077626  
310.000000	4.735751  
310.500000	4.109430  
311.000000	3.410151  
311.500000	2.844956  
312.000000	2.286546  
312.500000	1.825909  
313.000000	1.637864  
313.500000	1.581260  
314.000000	1.725339  
314.500000	1.874020  
315.000000	1.956850  
315.500000	2.005998  
316.000000	2.354943  
316.500000	2.784539  
317.000000	3.087395  
317.500000	3.192039  
318.000000	3.226825  
318.500000	3.040114  
319.000000	2.645517  
319.500000	1.979355  
320.000000	1.312686  
320.500000	0.886823  
321.000000	0.844261  
321.500000	1.140942  
322.000000	1.373378  
322.500000	1.781638  
323.000000	2.095616  
323.500000	2.224486  
324.000000	1.982484  
324.500000	1.555163  
325.000000	1.226179  
325.500000	1.087540  
326.000000	1.289316  
326.500000	1.438012  
327.000000	1.656677  
327.500000	1.899156  
328.000000	2.162221  
328.500000	2.337089  
329.000000	2.250707  
329.500000	2.031400  
330.000000	1.729175  
330.500000	1.659437  
331.000000	1.443423  
331.500000	1.100956  
332.000000	0.778144  
332.500000	0.572579  
333.000000	0.559432  
333.500000	0.580858  
334.000000	0.636124  
334.500000	0.652098  
335.000000	0.750601  
335.500000	0.774830  
336.000000	0.627903  
336.500000	0.279539  
337.000000	-0.015214 
337.500000	-0.343732 
338.000000	-0.574965 
338.500000	-0.592295 
339.000000	-0.544935 
339.500000	-0.287406 
340.000000	0.079764  
340.500000	0.521861  
341.000000	0.897213  
341.500000	1.285235  
342.000000	1.486144  
342.500000	1.601423  
343.000000	1.612823  
343.500000	1.466669  
344.000000	1.332726  
344.500000	1.132582  
345.000000	1.026389  
345.500000	0.943928  
346.000000	0.889507  
346.500000	0.721649  
347.000000	0.630064  
347.500000	0.549883  
348.000000	0.347200  
348.500000	0.209394  
349.000000	0.046941  
349.500000	0.076867  
350.000000	0.235866  
350.500000	0.387169  
351.000000	0.375498  
351.500000	0.394843  
352.000000	0.439722  
352.500000	0.456995  
353.000000	0.527914  
353.500000	0.581223  
354.000000	0.782099  
354.500000	1.040189  
355.000000	1.318487  
355.500000	1.449866  
356.000000	1.435085  
356.500000	1.337225  
357.000000	1.090527  
357.500000	0.900137  
358.000000	0.712932  
358.500000	0.671804  
359.000000	0.734125  
359.500000	0.872679  
360.000000	1.109974  
360.500000	1.343198  
361.000000	1.527832  
361.500000	1.518269  
362.000000	1.426098  
362.500000	1.315181  
363.000000	1.203764  
363.500000	1.043974  
364.000000	0.811171  
364.500000	0.612542  
365.000000	0.465431  
365.500000	0.415792  
366.000000	0.361699  
366.500000	0.321238  
367.000000	0.400961  
367.500000	0.503298  
368.000000	0.601382  
368.500000	0.713032  
369.000000	0.806038  
369.500000	0.857288  
370.000000	1.004580  
370.500000	1.117982  
371.000000	1.128306  
371.500000	1.155793  
372.000000	1.133228  
372.500000	0.985221  
373.000000	0.994101  
373.500000	0.986849  
374.000000	0.967383  
374.500000	1.082518  
375.000000	1.167803  
375.500000	1.229509  
376.000000	1.257979  
376.500000	1.218333  
377.000000	1.036075  
377.500000	0.942017  
378.000000	0.771016  
378.500000	0.605124  
379.000000	0.550635  
379.500000	0.584570  
380.000000	0.644236  
380.500000	0.699130  
381.000000	0.751926  
381.500000	0.761252  
382.000000	0.884364  
382.500000	0.942231  
383.000000	0.987691  
383.500000	1.011582  
384.000000	1.085176  
384.500000	1.113839  
385.000000	1.159728  
385.500000	1.153341  
386.000000	1.108678  
386.500000	1.125805  
387.000000	1.189487  
387.500000	1.270729  
388.000000	1.283781  
388.500000	1.308783  
389.000000	1.255410  
389.500000	1.208071  
390.000000	1.173278  
390.500000	1.080783  
391.000000	0.992162  
391.500000	0.944298  
392.000000	0.945722  
392.500000	0.923220  
393.000000	0.913366  
393.500000	0.923464  
394.000000	0.917923  
394.500000	0.956203  
395.000000	1.018736  
395.500000	1.059058  
396.000000	1.101358  
396.500000	1.160886  
397.000000	1.229662  
397.500000	1.277602  
398.000000	1.342156  
398.500000	1.337282  
399.000000	1.318338  
399.500000	1.288670  
400.000000	1.248253  
400.500000	1.207648  
401.000000	1.155609  
401.500000	1.140010  
402.000000	1.106186  
402.500000	1.089385  
403.000000	1.046102  
403.500000	1.015084  
404.000000	0.999224  
404.500000	0.971155  
405.000000	0.949283  
405.500000	0.971087  
406.000000	1.083223  
406.500000	1.196439  
407.000000	1.300489  
407.500000	1.393208  
408.000000	1.511006  
408.500000	1.579176  
409.000000	1.557777  
409.500000	1.433277  
410.000000	1.331775  
410.500000	1.280447  
411.000000	1.235954  
411.500000	1.165592  
412.000000	1.112508  
412.500000	1.157851  
413.000000	1.264579  
413.500000	1.345083  
414.000000	1.345449  
414.500000	1.342576  
415.000000	1.360812  
415.500000	1.387181  
416.000000	1.376560  
416.500000	1.353488  
417.000000	1.363185  
417.500000	1.402632  
418.000000	1.440643  
418.500000	1.417841  
419.000000	1.363031  
419.500000	1.293796  
420.000000	1.216618  
420.500000	1.149622  
421.000000	1.102749  
421.500000	1.070626  
422.000000	1.073407  
422.500000	1.069244  
423.000000	1.036041  
423.500000	0.977502  
424.000000	0.918373  
424.500000	0.846984  
425.000000	0.752284  
425.500000	0.682613  
426.000000	0.628067  
426.500000	0.619731  
427.000000	0.623989  
427.500000	0.616096  
428.000000	0.601452  
428.500000	0.608145  
429.000000	0.648507  
429.500000	0.683550  
430.000000	0.747476  
430.500000	0.812629  
431.000000	0.901673  
431.500000	0.969337  
432.000000	1.013452  
432.500000	1.033891  
433.000000	1.033239  
433.500000	1.050956  
434.000000	1.034054  
434.500000	1.038102  
435.000000	1.031199  
435.500000	1.036055  
436.000000	1.032575  
436.500000	1.016906  
437.000000	0.975016  
437.500000	0.916134  
438.000000	0.881951  
438.500000	0.830834  
439.000000	0.792543  
439.500000	0.751515  
440.000000	0.722810  
440.500000	0.710810  
441.000000	0.725202  
441.500000	0.734048  
442.000000	0.743675  
442.500000	0.792754  
443.000000	0.850981  
443.500000	0.904172  
444.000000	0.935662  
444.500000	0.929821  

