PE FL                   SPECTRUM    ASCII       PEDS        1.60        
  -1
PM34FC~1
23/10/12
11:44:41.00
23/10/12
11:44:41.00


444.500000
1









LS55
50.00
5.00
5.00
SCAN
1
20
100
500
0
500
0
2
0
1
7
ON
500 450 
1 0 0
#HDR
-1
-1
#GR
NM

0.00002384185791015625
0.0
250.000000
0.500000
390
8
5.587680
-3.523000
#DATA
250.000000	-3.523000 
250.500000	-3.472018 
251.000000	-3.361667 
251.500000	-2.988171 
252.000000	-2.761018 
252.500000	-2.625795 
253.000000	-2.664346 
253.500000	-2.362623 
254.000000	-2.010553 
254.500000	-1.729265 
255.000000	-1.847152 
255.500000	-2.016089 
256.000000	-1.967577 
256.500000	-2.081677 
257.000000	-2.313930 
257.500000	-2.677978 
258.000000	-2.735352 
258.500000	-2.290252 
259.000000	-1.770131 
259.500000	-1.724534 
260.000000	-1.254186 
260.500000	-0.591199 
261.000000	0.222595  
261.500000	1.044678  
262.000000	1.098215  
262.500000	1.380465  
263.000000	1.895697  
263.500000	2.374763  
264.000000	2.437548  
264.500000	3.018032  
265.000000	3.579757  
265.500000	3.994702  
266.000000	4.615243  
266.500000	4.375705  
267.000000	3.930575  
267.500000	3.472797  
268.000000	3.206529  
268.500000	2.628494  
269.000000	2.291105  
269.500000	2.023866  
270.000000	1.455666  
270.500000	1.308444  
271.000000	0.721490  
271.500000	0.084287  
272.000000	-0.608863 
272.500000	-1.411717 
273.000000	-1.796612 
273.500000	-2.007805 
274.000000	-1.811128 
274.500000	-1.797945 
275.000000	-1.455078 
275.500000	-0.991889 
276.000000	-0.450033 
276.500000	-0.019013 
277.000000	-0.016553 
277.500000	0.315139  
278.000000	0.351375  
278.500000	0.334212  
279.000000	0.085328  
279.500000	-0.094090 
280.000000	-0.355740 
280.500000	-0.354166 
281.000000	-0.617715 
281.500000	-1.281463 
282.000000	-1.690785 
282.500000	-1.978802 
283.000000	-2.032684 
283.500000	-1.891839 
284.000000	-1.362223 
284.500000	-0.440306 
285.000000	0.820835  
285.500000	2.032481  
286.000000	3.147162  
286.500000	4.038342  
287.000000	4.417879  
287.500000	4.303184  
288.000000	3.796569  
288.500000	3.156319  
289.000000	2.510196  
289.500000	1.692715  
290.000000	0.813282  
290.500000	0.236846  
291.000000	-0.116444 
291.500000	-0.268018 
292.000000	-0.116935 
292.500000	0.104637  
293.000000	0.586338  
293.500000	1.069225  
294.000000	1.145533  
294.500000	0.837248  
295.000000	0.287924  
295.500000	-0.356317 
296.000000	-0.936156 
296.500000	-1.041036 
297.000000	-0.755299 
297.500000	0.020701  
298.000000	1.313414  
298.500000	2.853232  
299.000000	4.235078  
299.500000	5.248353  
300.000000	5.499050  
300.500000	5.319150  
301.000000	4.657299  
301.500000	3.847343  
302.000000	3.148745  
302.500000	2.541897  
303.000000	2.217078  
303.500000	2.063605  
304.000000	2.136171  
304.500000	2.330157  
305.000000	2.789873  
305.500000	2.932726  
306.000000	2.976891  
306.500000	3.224884  
307.000000	3.398453  
307.500000	3.472055  
308.000000	3.381170  
308.500000	3.130793  
309.000000	2.937269  
309.500000	3.088534  
310.000000	3.179396  
310.500000	3.084806  
311.000000	3.361511  
311.500000	3.855902  
312.000000	4.360927  
312.500000	4.702673  
313.000000	4.627218  
313.500000	4.366810  
314.000000	4.084649  
314.500000	3.921674  
315.000000	3.678770  
315.500000	3.462449  
316.000000	3.578160  
316.500000	4.070024  
317.000000	4.703303  
317.500000	5.363715  
318.000000	5.587680  
318.500000	5.495245  
319.000000	5.426355  
319.500000	5.153942  
320.000000	4.712172  
320.500000	4.213369  
321.000000	4.055604  
321.500000	4.016391  
322.000000	4.176527  
322.500000	4.294914  
323.000000	4.401934  
323.500000	4.648140  
324.000000	4.878782  
324.500000	5.073058  
325.000000	4.986878  
325.500000	4.824291  
326.000000	4.570008  
326.500000	4.374137  
327.000000	4.073603  
327.500000	3.707292  
328.000000	3.458445  
328.500000	3.244364  
329.000000	3.044683  
329.500000	2.826480  
330.000000	2.485304  
330.500000	2.042012  
331.000000	1.633914  
331.500000	1.211005  
332.000000	0.860930  
332.500000	0.679481  
333.000000	0.663644  
333.500000	0.770603  
334.000000	1.117970  
334.500000	1.501922  
335.000000	1.859595  
335.500000	2.200450  
336.000000	2.404316  
336.500000	2.537828  
337.000000	2.476551  
337.500000	2.298027  
338.000000	1.984334  
338.500000	1.721265  
339.000000	1.482098  
339.500000	1.356774  
340.000000	1.260015  
340.500000	1.212597  
341.000000	1.262889  
341.500000	1.166917  
342.000000	1.007134  
342.500000	0.900131  
343.000000	0.920653  
343.500000	0.910928  
344.000000	1.003707  
344.500000	1.149929  
345.000000	1.415700  
345.500000	1.711491  
346.000000	1.822815  
346.500000	1.718603  
347.000000	1.541361  
347.500000	1.424130  
348.000000	1.246106  
348.500000	1.170535  
349.000000	1.183906  
349.500000	1.298925  
350.000000	1.595803  
350.500000	2.041358  
351.000000	2.370937  
351.500000	2.544460  
352.000000	2.660688  
352.500000	2.581626  
353.000000	2.431465  
353.500000	2.174492  
354.000000	1.782255  
354.500000	1.421387  
355.000000	1.276119  
355.500000	1.273384  
356.000000	1.375557  
356.500000	1.672877  
357.000000	2.062448  
357.500000	2.506742  
358.000000	2.865823  
358.500000	2.930108  
359.000000	2.770721  
359.500000	2.582958  
360.000000	2.294374  
360.500000	1.916960  
361.000000	1.564390  
361.500000	1.371924  
362.000000	1.371741  
362.500000	1.505985  
363.000000	1.662290  
363.500000	1.793188  
364.000000	1.967741  
364.500000	2.101460  
365.000000	2.207860  
365.500000	2.272529  
366.000000	2.329787  
366.500000	2.370673  
367.000000	2.521739  
367.500000	2.564262  
368.000000	2.530154  
368.500000	2.456755  
369.000000	2.335577  
369.500000	2.195553  
370.000000	2.133863  
370.500000	2.111632  
371.000000	2.089005  
371.500000	2.209901  
372.000000	2.312526  
372.500000	2.476406  
373.000000	2.585409  
373.500000	2.629710  
374.000000	2.644853  
374.500000	2.625337  
375.000000	2.675883  
375.500000	2.746902  
376.000000	2.914822  
376.500000	3.086537  
377.000000	3.282942  
377.500000	3.411177  
378.000000	3.462122  
378.500000	3.551869  
379.000000	3.540876  
379.500000	3.553394  
380.000000	3.588737  
380.500000	3.601159  
381.000000	3.557254  
381.500000	3.504892  
382.000000	3.353268  
382.500000	3.150662  
383.000000	3.027484  
383.500000	2.898509  
384.000000	2.818013  
384.500000	2.778081  
385.000000	2.817002  
385.500000	2.866546  
386.000000	2.933465  
386.500000	2.906463  
387.000000	2.916890  
387.500000	2.917216  
388.000000	2.938641  
388.500000	2.944590  
389.000000	2.902105  
389.500000	2.888609  
390.000000	2.823437  
390.500000	2.723369  
391.000000	2.525198  
391.500000	2.388476  
392.000000	2.293564  
392.500000	2.331952  
393.000000	2.427083  
393.500000	2.525409  
394.000000	2.674663  
394.500000	2.792451  
395.000000	2.829113  
395.500000	2.778426  
396.000000	2.724280  
396.500000	2.611446  
397.000000	2.558208  
397.500000	2.507551  
398.000000	2.510099  
398.500000	2.587277  
399.000000	2.638823  
399.500000	2.613071  
400.000000	2.543287  
400.500000	2.432137  
401.000000	2.265703  
401.500000	2.103549  
402.000000	1.928452  
402.500000	1.808132  
403.000000	1.790952  
403.500000	1.838108  
404.000000	1.905519  
404.500000	1.999816  
405.000000	2.101860  
405.500000	2.187951  
406.000000	2.249843  
406.500000	2.248541  
407.000000	2.259909  
407.500000	2.236417  
408.000000	2.176683  
408.500000	2.112805  
409.000000	2.053506  
409.500000	1.965574  
410.000000	1.863039  
410.500000	1.771788  
411.000000	1.667767  
411.500000	1.608780  
412.000000	1.569621  
412.500000	1.554881  
413.000000	1.581854  
413.500000	1.662512  
414.000000	1.749534  
414.500000	1.799023  
415.000000	1.851812  
415.500000	1.860656  
416.000000	1.840876  
416.500000	1.785156  
417.000000	1.707456  
417.500000	1.629082  
418.000000	1.589289  
418.500000	1.557074  
419.000000	1.522209  
419.500000	1.506298  
420.000000	1.525834  
420.500000	1.515730  
421.000000	1.473974  
421.500000	1.438113  
422.000000	1.383047  
422.500000	1.356513  
423.000000	1.340677  
423.500000	1.339860  
424.000000	1.329960  
424.500000	1.349787  
425.000000	1.355254  
425.500000	1.321974  
426.000000	1.276970  
426.500000	1.182604  
427.000000	1.084449  
427.500000	0.995703  
428.000000	0.959859  
428.500000	0.924791  
429.000000	0.922624  
429.500000	0.936611  
430.000000	0.941349  
430.500000	0.963517  
431.000000	0.948726  
431.500000	0.893663  
432.000000	0.822240  
432.500000	0.779166  
433.000000	0.745151  
433.500000	0.736483  
434.000000	0.750977  
434.500000	0.786956  
435.000000	0.857973  
435.500000	0.933585  
436.000000	0.969528  
436.500000	0.961464  
437.000000	0.951648  
437.500000	0.920521  
438.000000	0.884635  
438.500000	0.864002  
439.000000	0.859262  
439.500000	0.870748  
440.000000	0.911774  
440.500000	0.949622  
441.000000	0.962654  
441.500000	0.956546  
442.000000	0.913750  
442.500000	0.859339  
443.000000	0.809528  
443.500000	0.775154  
444.000000	0.753721  
444.500000	0.759095  

