PE FL                   SPECTRUM    ASCII       PEDS        1.60        
  -1
PM3455~1
23/10/12
11:42:00.00
23/10/12
11:42:00.00


444.500000
1









LS55
30.00
5.00
5.00
SCAN
1
20
100
500
0
500
0
2
0
1
7
ON
500 450 
1 0 0
#HDR
-1
-1
#GR
NM

0.00002384185791015625
0.0
250.000000
0.500000
390
8
5.571497
-3.707105
#DATA
250.000000	3.522999  
250.500000	1.981354  
251.000000	0.765878  
251.500000	-0.187147 
252.000000	-0.986217 
252.500000	-1.697150 
253.000000	-2.523894 
253.500000	-2.968425 
254.000000	-3.167229 
254.500000	-3.552293 
255.000000	-3.707105 
255.500000	-3.521266 
256.000000	-2.982014 
256.500000	-2.124353 
257.000000	-1.306061 
257.500000	-1.388281 
258.000000	-1.485877 
258.500000	-1.489530 
259.000000	-1.877031 
259.500000	-1.936707 
260.000000	-1.712504 
260.500000	-1.360445 
261.000000	-0.855626 
261.500000	-0.134201 
262.000000	0.059740  
262.500000	0.278157  
263.000000	0.515851  
263.500000	0.151004  
264.000000	-0.272880 
264.500000	-0.759068 
265.000000	-1.699970 
265.500000	-2.476309 
266.000000	-2.905241 
266.500000	-3.124154 
267.000000	-2.932181 
267.500000	-2.127009 
268.000000	-1.040489 
268.500000	0.257680  
269.000000	1.579146  
269.500000	1.992478  
270.000000	1.910432  
270.500000	1.379396  
271.000000	0.485650  
271.500000	-0.873784 
272.000000	-2.291345 
272.500000	-3.147878 
273.000000	-3.369333 
273.500000	-3.050919 
274.000000	-2.978953 
274.500000	-2.798220 
275.000000	-2.478637 
275.500000	-2.093905 
276.000000	-1.999193 
276.500000	-2.426014 
277.000000	-2.681546 
277.500000	-2.786595 
278.000000	-2.571053 
278.500000	-2.198528 
279.000000	-1.689936 
279.500000	-0.787286 
280.000000	0.323041  
280.500000	1.503331  
281.000000	1.975628  
281.500000	2.344811  
282.000000	2.418052  
282.500000	2.250658  
283.000000	1.600983  
283.500000	0.685221  
284.000000	-0.074974 
284.500000	-0.783806 
285.000000	-1.377682 
285.500000	-1.944235 
286.000000	-2.111611 
286.500000	-1.822311 
287.000000	-1.307637 
287.500000	-0.772017 
288.000000	-0.370195 
288.500000	0.156260  
289.000000	0.763829  
289.500000	1.019314  
290.000000	0.801809  
290.500000	0.336362  
291.000000	-0.000259 
291.500000	-0.328151 
292.000000	-0.676952 
292.500000	-1.014163 
293.000000	-1.248631 
293.500000	-1.230822 
294.000000	-1.312868 
294.500000	-0.996242 
295.000000	-0.804699 
295.500000	-0.436089 
296.000000	0.235916  
296.500000	1.370688  
297.000000	2.506792  
297.500000	3.590495  
298.000000	4.327484  
298.500000	4.372821  
299.000000	4.440393  
299.500000	3.864392  
300.000000	3.028289  
300.500000	2.299960  
301.000000	2.239918  
301.500000	2.476045  
302.000000	3.192060  
302.500000	3.946442  
303.000000	4.330250  
303.500000	5.037214  
304.000000	4.915728  
304.500000	4.660580  
305.000000	4.133374  
305.500000	3.929475  
306.000000	3.678158  
306.500000	3.476171  
307.000000	3.262794  
307.500000	3.069998  
308.000000	3.216654  
308.500000	2.787359  
309.000000	2.627670  
309.500000	2.538773  
310.000000	2.769248  
310.500000	3.217594  
311.000000	3.730794  
311.500000	4.374963  
312.000000	5.019050  
312.500000	5.571497  
313.000000	5.485650  
313.500000	5.364480  
314.000000	5.160099  
314.500000	4.855237  
315.000000	4.391134  
315.500000	3.778181  
316.000000	3.559839  
316.500000	3.771847  
317.000000	4.138012  
317.500000	4.315103  
318.000000	4.540482  
318.500000	4.875971  
319.000000	5.155598  
319.500000	5.244173  
320.000000	4.930785  
320.500000	4.461696  
321.000000	4.105146  
321.500000	3.902416  
322.000000	3.546024  
322.500000	3.096539  
323.000000	2.889742  
323.500000	2.867378  
324.000000	3.112023  
324.500000	3.453603  
325.000000	3.642267  
325.500000	3.712951  
326.000000	4.008726  
326.500000	4.127414  
327.000000	4.051979  
327.500000	3.950743  
328.000000	3.640424  
328.500000	3.595567  
329.000000	3.612868  
329.500000	3.538359  
330.000000	3.331335  
330.500000	3.295286  
331.000000	3.164766  
331.500000	2.910407  
332.000000	2.630589  
332.500000	2.063136  
333.000000	1.659482  
333.500000	1.177691  
334.000000	0.796699  
334.500000	0.484162  
335.000000	0.410036  
335.500000	0.395010  
336.000000	0.483542  
336.500000	0.713826  
337.000000	0.822719  
337.500000	1.004805  
338.000000	0.975576  
338.500000	1.008514  
339.000000	1.142919  
339.500000	1.401368  
340.000000	1.542211  
340.500000	1.592183  
341.000000	1.675768  
341.500000	1.761947  
342.000000	1.740968  
342.500000	1.516184  
343.000000	1.283544  
343.500000	1.151237  
344.000000	1.293590  
344.500000	1.328427  
345.000000	1.352968  
345.500000	1.436492  
346.000000	1.555766  
346.500000	1.620823  
347.000000	1.456910  
347.500000	1.184281  
348.000000	0.969146  
348.500000	0.928810  
349.000000	0.799480  
349.500000	0.622790  
350.000000	0.516909  
350.500000	0.450572  
351.000000	0.508886  
351.500000	0.520584  
352.000000	0.560120  
352.500000	0.668511  
353.000000	0.879635  
353.500000	1.088821  
354.000000	1.194610  
354.500000	1.218530  
355.000000	1.139417  
355.500000	1.097131  
356.000000	1.043195  
356.500000	1.033525  
357.000000	1.114832  
357.500000	1.210663  
358.000000	1.348655  
358.500000	1.483885  
359.000000	1.511057  
359.500000	1.504765  
360.000000	1.385511  
360.500000	1.164484  
361.000000	0.941836  
361.500000	0.768526  
362.000000	0.538274  
362.500000	0.326718  
363.000000	0.217572  
363.500000	0.135651  
364.000000	0.228157  
364.500000	0.398388  
365.000000	0.551166  
365.500000	0.722030  
366.000000	1.046088  
366.500000	1.321574  
367.000000	1.544909  
367.500000	1.665889  
368.000000	1.631713  
368.500000	1.659719  
369.000000	1.669627  
369.500000	1.493261  
370.000000	1.295784  
370.500000	1.177893  
371.000000	1.015971  
371.500000	0.904874  
372.000000	0.782893  
372.500000	0.709249  
373.000000	0.784834  
373.500000	0.930273  
374.000000	1.025800  
374.500000	1.217455  
375.000000	1.442296  
375.500000	1.559944  
376.000000	1.631084  
376.500000	1.582336  
377.000000	1.437809  
377.500000	1.357579  
378.000000	1.239945  
378.500000	1.056644  
379.000000	1.007511  
379.500000	1.108860  
380.000000	1.262848  
380.500000	1.391175  
381.000000	1.416033  
381.500000	1.342052  
382.000000	1.334827  
382.500000	1.300860  
383.000000	1.204680  
383.500000	1.156984  
384.000000	1.197200  
384.500000	1.300109  
385.000000	1.383942  
385.500000	1.420909  
386.000000	1.366927  
386.500000	1.352650  
387.000000	1.323797  
387.500000	1.292107  
388.000000	1.276700  
388.500000	1.349883  
389.000000	1.469350  
389.500000	1.559110  
390.000000	1.581231  
390.500000	1.543971  
391.000000	1.531063  
391.500000	1.475794  
392.000000	1.390364  
392.500000	1.313711  
393.000000	1.281917  
393.500000	1.292121  
394.000000	1.325156  
394.500000	1.383705  
395.000000	1.384086  
395.500000	1.398665  
396.000000	1.414678  
396.500000	1.399702  
397.000000	1.342824  
397.500000	1.253557  
398.000000	1.165632  
398.500000	1.103657  
399.000000	1.121704  
399.500000	1.131314  
400.000000	1.117851  
400.500000	1.124431  
401.000000	1.145437  
401.500000	1.169038  
402.000000	1.150982  
402.500000	1.110091  
403.000000	1.077617  
403.500000	1.068693  
404.000000	1.082394  
404.500000	1.116344  
405.000000	1.129936  
405.500000	1.187308  
406.000000	1.255191  
406.500000	1.293007  
407.000000	1.328906  
407.500000	1.356039  
408.000000	1.350437  
408.500000	1.307807  
409.000000	1.294471  
409.500000	1.240230  
410.000000	1.197308  
410.500000	1.165310  
411.000000	1.107609  
411.500000	1.041316  
412.000000	0.970539  
412.500000	0.912843  
413.000000	0.803250  
413.500000	0.726184  
414.000000	0.675746  
414.500000	0.678816  
415.000000	0.716510  
415.500000	0.781126  
416.000000	0.848756  
416.500000	0.897897  
417.000000	0.958292  
417.500000	0.953469  
418.000000	0.924906  
418.500000	0.887052  
419.000000	0.884050  
419.500000	0.887296  
420.000000	0.903851  
420.500000	0.916471  
421.000000	0.913974  
421.500000	0.936606  
422.000000	0.927783  
422.500000	0.910766  
423.000000	0.885200  
423.500000	0.883515  
424.000000	0.897633  
424.500000	0.916863  
425.000000	0.953068  
425.500000	0.970398  
426.000000	1.009302  
426.500000	1.015224  
427.000000	1.003531  
427.500000	0.973126  
428.000000	0.928796  
428.500000	0.908303  
429.000000	0.903198  
429.500000	0.913042  
430.000000	0.927783  
430.500000	0.971941  
431.000000	1.017724  
431.500000	1.053589  
432.000000	1.066721  
432.500000	1.045969  
433.000000	1.008205  
433.500000	0.957786  
434.000000	0.899919  
434.500000	0.842878  
435.000000	0.821215  
435.500000	0.821967  
436.000000	0.843475  
436.500000	0.866862  
437.000000	0.917993  
437.500000	0.976008  
438.000000	1.023798  
438.500000	1.057375  
439.000000	1.061686  
439.500000	1.065728  
440.000000	1.044003  
440.500000	1.008880  
441.000000	0.926819  
441.500000	0.871246  
442.000000	0.825333  
442.500000	0.795154  
443.000000	0.785879  
443.500000	0.781739  
444.000000	0.811737  
444.500000	0.843711  

