PE FL                   SPECTRUM    ASCII       PEDS        1.60        
  -1
PMPPP_~3
23/10/12
10:50:04.00
23/10/12
10:50:04.00


894.500000
1









LS55
316.00
5.00
5.00
SCAN
1
20
100
500
0
100
0
1
0
1
7
ON
900 316 
1 0 0
#HDR
-1
-1
#GR
NM

0.00002384185791015625
0.0
330.000000
0.500000
1130
8
125.927587
-1.304174
#DATA
330.000000	3.346000   
330.500000	4.517644   
331.000000	5.694553   
331.500000	6.638474   
332.000000	7.330079   
332.500000	7.885312   
333.000000	8.251733   
333.500000	8.522542   
334.000000	8.958195   
334.500000	9.425738   
335.000000	10.033953  
335.500000	10.780301  
336.000000	11.586478  
336.500000	12.299449  
337.000000	12.960258  
337.500000	13.560314  
338.000000	13.973912  
338.500000	14.436356  
339.000000	14.852920  
339.500000	15.425011  
340.000000	16.112241  
340.500000	16.998471  
341.000000	17.961020  
341.500000	18.923717  
342.000000	19.939893  
342.500000	20.837145  
343.000000	21.560682  
343.500000	22.072356  
344.000000	22.588064  
344.500000	23.066562  
345.000000	23.585226  
345.500000	24.197611  
346.000000	24.826514  
346.500000	25.476837  
347.000000	26.084333  
347.500000	26.484705  
348.000000	26.633993  
348.500000	26.566007  
349.000000	26.348320  
349.500000	26.011646  
350.000000	25.907769  
350.500000	25.959714  
351.000000	26.303986  
351.500000	26.989625  
352.000000	27.932916  
352.500000	29.033735  
353.000000	30.067306  
353.500000	30.965923  
354.000000	31.552252  
354.500000	32.054761  
355.000000	32.234648  
355.500000	32.050286  
356.000000	31.601039  
356.500000	31.055531  
357.000000	30.491973  
357.500000	29.845771  
358.000000	29.330250  
358.500000	28.953699  
359.000000	29.039602  
359.500000	29.330816  
360.000000	29.604009  
360.500000	29.900647  
361.000000	30.193151  
361.500000	30.416731  
362.000000	30.347088  
362.500000	30.244690  
363.000000	30.027714  
363.500000	29.956465  
364.000000	29.929257  
364.500000	29.861041  
365.000000	29.879354  
365.500000	29.823344  
366.000000	29.699620  
366.500000	29.366807  
367.000000	29.201065  
367.500000	29.016437  
368.000000	28.922335  
368.500000	28.762646  
369.000000	28.549198  
369.500000	28.371991  
370.000000	28.038591  
370.500000	27.503728  
371.000000	26.764141  
371.500000	26.193162  
372.000000	25.710985  
372.500000	25.309028  
373.000000	24.929125  
373.500000	24.656211  
374.000000	24.523524  
374.500000	24.421650  
375.000000	24.269810  
375.500000	24.050985  
376.000000	23.944849  
376.500000	23.901212  
377.000000	23.840157  
377.500000	23.801794  
378.000000	23.759030  
378.500000	23.682232  
379.000000	23.529349  
379.500000	23.329706  
380.000000	23.123339  
380.500000	22.930213  
381.000000	22.710253  
381.500000	22.464873  
382.000000	22.269973  
382.500000	22.042669  
383.000000	21.858807  
383.500000	21.625679  
384.000000	21.402372  
384.500000	21.291131  
385.000000	21.239865  
385.500000	21.205282  
386.000000	21.176146  
386.500000	21.203040  
387.000000	21.134784  
387.500000	21.048893  
388.000000	20.880517  
388.500000	20.636820  
389.000000	20.392471  
389.500000	20.136204  
390.000000	19.892985  
390.500000	19.654354  
391.000000	19.438468  
391.500000	19.121262  
392.000000	18.815253  
392.500000	18.482236  
393.000000	18.124081  
393.500000	17.822085  
394.000000	17.596916  
394.500000	17.410078  
395.000000	17.265190  
395.500000	17.164237  
396.000000	16.997899  
396.500000	16.807647  
397.000000	16.585445  
397.500000	16.307096  
398.000000	16.054501  
398.500000	15.942902  
399.000000	15.870766  
399.500000	15.893142  
400.000000	15.947282  
400.500000	15.950038  
401.000000	15.898182  
401.500000	15.727994  
402.000000	15.429692  
402.500000	14.991139  
403.000000	14.540223  
403.500000	14.116520  
404.000000	13.717164  
404.500000	13.450201  
405.000000	13.278717  
405.500000	13.203486  
406.000000	13.202327  
406.500000	13.260341  
407.000000	13.337471  
407.500000	13.308506  
408.000000	13.188670  
408.500000	12.874973  
409.000000	12.459312  
409.500000	12.039219  
410.000000	11.533340  
410.500000	10.987960  
411.000000	10.564163  
411.500000	10.321845  
412.000000	10.158106  
412.500000	10.101621  
413.000000	10.025136  
413.500000	9.911378   
414.000000	9.877377   
414.500000	9.754349   
415.000000	9.532778   
415.500000	9.264028   
416.000000	9.012567   
416.500000	8.931699   
417.000000	8.925252   
417.500000	8.947041   
418.000000	8.874883   
418.500000	8.858198   
419.000000	8.810880   
419.500000	8.646456   
420.000000	8.424075   
420.500000	8.072573   
421.000000	7.838011   
421.500000	7.628914   
422.000000	7.409499   
422.500000	7.223538   
423.000000	7.054395   
423.500000	6.950100   
424.000000	6.911677   
424.500000	6.866873   
425.000000	6.700718   
425.500000	6.602055   
426.000000	6.501050   
426.500000	6.356157   
427.000000	6.237619   
427.500000	6.117034   
428.000000	6.081929   
428.500000	6.093028   
429.000000	6.142914   
429.500000	6.140000   
430.000000	6.063973   
430.500000	5.967342   
431.000000	5.775159   
431.500000	5.486665   
432.000000	5.100752   
432.500000	4.810113   
433.000000	4.593665   
433.500000	4.482223   
434.000000	4.403079   
434.500000	4.304567   
435.000000	4.268180   
435.500000	4.293338   
436.000000	4.200187   
436.500000	4.025980   
437.000000	3.859067   
437.500000	3.647794   
438.000000	3.533334   
438.500000	3.382926   
439.000000	3.222959   
439.500000	3.014935   
440.000000	2.941481   
440.500000	2.791327   
441.000000	2.664618   
441.500000	2.549108   
442.000000	2.416838   
442.500000	2.429692   
443.000000	2.491876   
443.500000	2.710824   
444.000000	2.848358   
444.500000	3.121338   
445.000000	3.293962   
445.500000	3.499858   
446.000000	3.578112   
446.500000	3.455723   
447.000000	3.301417   
447.500000	3.117682   
448.000000	3.033314   
448.500000	2.902008   
449.000000	2.964776   
449.500000	3.064046   
450.000000	3.258072   
450.500000	3.378718   
451.000000	3.428794   
451.500000	3.350882   
452.000000	3.207249   
452.500000	2.988787   
453.000000	2.617419   
453.500000	2.255361   
454.000000	1.924403   
454.500000	1.818954   
455.000000	1.798584   
455.500000	1.834344   
456.000000	1.872874   
456.500000	1.998991   
457.000000	2.144116   
457.500000	2.219312   
458.000000	2.220325   
458.500000	2.138106   
459.000000	2.072450   
459.500000	2.004624   
460.000000	1.888273   
460.500000	1.712014   
461.000000	1.589721   
461.500000	1.556768   
462.000000	1.588647   
462.500000	1.609340   
463.000000	1.624821   
463.500000	1.622382   
464.000000	1.635551   
464.500000	1.552486   
465.000000	1.435305   
465.500000	1.303778   
466.000000	1.229575   
466.500000	1.198931   
467.000000	1.203627   
467.500000	1.336382   
468.000000	1.483526   
468.500000	1.577529   
469.000000	1.574649   
469.500000	1.536839   
470.000000	1.418800   
470.500000	1.356146   
471.000000	1.302969   
471.500000	1.250287   
472.000000	1.248197   
472.500000	1.284711   
473.000000	1.346736   
473.500000	1.361539   
474.000000	1.331901   
474.500000	1.171884   
475.000000	1.026909   
475.500000	0.850357   
476.000000	0.699835   
476.500000	0.498073   
477.000000	0.207036   
477.500000	0.031282   
478.000000	-0.095674  
478.500000	-0.176866  
479.000000	-0.162917  
479.500000	-0.071837  
480.000000	0.090231   
480.500000	0.435616   
481.000000	0.792347   
481.500000	1.018123   
482.000000	1.270256   
482.500000	1.484415   
483.000000	1.528347   
483.500000	1.506559   
484.000000	1.411064   
484.500000	1.212634   
485.000000	1.045371   
485.500000	0.871311   
486.000000	0.664934   
486.500000	0.515405   
487.000000	0.429284   
487.500000	0.375647   
488.000000	0.388305   
488.500000	0.465744   
489.000000	0.537948   
489.500000	0.693509   
490.000000	0.854243   
490.500000	1.017966   
491.000000	1.106698   
491.500000	1.117673   
492.000000	1.081041   
492.500000	0.963761   
493.000000	0.831959   
493.500000	0.662012   
494.000000	0.524664   
494.500000	0.416124   
495.000000	0.482165   
495.500000	0.660116   
496.000000	0.881560   
496.500000	1.063905   
497.000000	1.226055   
497.500000	1.365744   
498.000000	1.438773   
498.500000	1.414496   
499.000000	1.210136   
499.500000	1.015157   
500.000000	0.859602   
500.500000	0.765831   
501.000000	0.634463   
501.500000	0.458333   
502.000000	0.339464   
502.500000	0.327755   
503.000000	0.370527   
503.500000	0.377269   
504.000000	0.378855   
504.500000	0.421593   
505.000000	0.492349   
505.500000	0.538836   
506.000000	0.532773   
506.500000	0.509264   
507.000000	0.504734   
507.500000	0.526341   
508.000000	0.576440   
508.500000	0.621221   
509.000000	0.702374   
509.500000	0.789540   
510.000000	0.857546   
510.500000	0.806816   
511.000000	0.695357   
511.500000	0.501514   
512.000000	0.268120   
512.500000	0.108561   
513.000000	0.033975   
513.500000	0.022518   
514.000000	0.103006   
514.500000	0.219290   
515.000000	0.319160   
515.500000	0.427404   
516.000000	0.455554   
516.500000	0.336227   
517.000000	0.152570   
517.500000	0.035222   
518.000000	-0.062994  
518.500000	-0.078763  
519.000000	-0.040560  
519.500000	0.015427   
520.000000	0.163385   
520.500000	0.394463   
521.000000	0.538610   
521.500000	0.595051   
522.000000	0.693659   
522.500000	0.771304   
523.000000	0.829845   
523.500000	0.838703   
524.000000	0.801114   
524.500000	0.718950   
525.000000	0.655115   
525.500000	0.586099   
526.000000	0.485457   
526.500000	0.435211   
527.000000	0.480469   
527.500000	0.540885   
528.000000	0.629087   
528.500000	0.755866   
529.000000	0.858015   
529.500000	0.929165   
530.000000	0.973330   
530.500000	0.935252   
531.000000	0.811818   
531.500000	0.684327   
532.000000	0.504970   
532.500000	0.322738   
533.000000	0.185018   
533.500000	0.082999   
534.000000	0.005694   
534.500000	-0.036987  
535.000000	-0.100170  
535.500000	-0.175521  
536.000000	-0.218885  
536.500000	-0.252322  
537.000000	-0.256257  
537.500000	-0.240034  
538.000000	-0.205726  
538.500000	-0.154899  
539.000000	-0.079850  
539.500000	-0.020461  
540.000000	0.047579   
540.500000	0.126128   
541.000000	0.170510   
541.500000	0.198185   
542.000000	0.188455   
542.500000	0.216597   
543.000000	0.210907   
543.500000	0.189245   
544.000000	0.154471   
544.500000	0.118198   
545.000000	0.125141   
545.500000	0.106354   
546.000000	0.049121   
546.500000	-0.049312  
547.000000	-0.103419  
547.500000	-0.151748  
548.000000	-0.231978  
548.500000	-0.313928  
549.000000	-0.363120  
549.500000	-0.318727  
550.000000	-0.250904  
550.500000	-0.199126  
551.000000	-0.191883  
551.500000	-0.190910  
552.000000	-0.194559  
552.500000	-0.244538  
553.000000	-0.293207  
553.500000	-0.372969  
554.000000	-0.446049  
554.500000	-0.485533  
555.000000	-0.553258  
555.500000	-0.617974  
556.000000	-0.712040  
556.500000	-0.784847  
557.000000	-0.880818  
557.500000	-0.911820  
558.000000	-0.901207  
558.500000	-0.887216  
559.000000	-0.822480  
559.500000	-0.730434  
560.000000	-0.593804  
560.500000	-0.466099  
561.000000	-0.361645  
561.500000	-0.333781  
562.000000	-0.311093  
562.500000	-0.316778  
563.000000	-0.364105  
563.500000	-0.416058  
564.000000	-0.432102  
564.500000	-0.430013  
565.000000	-0.428200  
565.500000	-0.425273  
566.000000	-0.443705  
566.500000	-0.498083  
567.000000	-0.529107  
567.500000	-0.575650  
568.000000	-0.653404  
568.500000	-0.649199  
569.000000	-0.608240  
569.500000	-0.521654  
570.000000	-0.376967  
570.500000	-0.255977  
571.000000	-0.218281  
571.500000	-0.201272  
572.000000	-0.226258  
572.500000	-0.323799  
573.000000	-0.427742  
573.500000	-0.533857  
574.000000	-0.638749  
574.500000	-0.610470  
575.000000	-0.570804  
575.500000	-0.593800  
576.000000	-0.586772  
576.500000	-0.510667  
577.000000	-0.441207  
577.500000	-0.381565  
578.000000	-0.290855  
578.500000	-0.265089  
579.000000	-0.203646  
579.500000	-0.242446  
580.000000	-0.405473  
580.500000	-0.652827  
581.000000	-0.831668  
581.500000	-0.982245  
582.000000	-1.118531  
582.500000	-1.136544  
583.000000	-1.068156  
583.500000	-0.862615  
584.000000	-0.649882  
584.500000	-0.528277  
585.000000	-0.523273  
585.500000	-0.564610  
586.000000	-0.693096  
586.500000	-0.923644  
587.000000	-1.124092  
587.500000	-1.266127  
588.000000	-1.304174  
588.500000	-1.198346  
589.000000	-1.024924  
589.500000	-0.822701  
590.000000	-0.578320  
590.500000	-0.358991  
591.000000	-0.223144  
591.500000	-0.107233  
592.000000	-0.036697  
592.500000	-0.053693  
593.000000	-0.049941  
593.500000	-0.067878  
594.000000	-0.115036  
594.500000	-0.133288  
595.000000	-0.149627  
595.500000	-0.208974  
596.000000	-0.251422  
596.500000	-0.243239  
597.000000	-0.251279  
597.500000	-0.210002  
598.000000	-0.165836  
598.500000	-0.179195  
599.000000	-0.194937  
599.500000	-0.201616  
600.000000	-0.216205  
600.500000	-0.232562  
601.000000	-0.229125  
601.500000	-0.256201  
602.000000	-0.210166  
602.500000	-0.078737  
603.000000	0.106761   
603.500000	0.270877   
604.000000	0.420223   
604.500000	0.536515   
605.000000	0.589696   
605.500000	0.573821   
606.000000	0.388828   
606.500000	0.133682   
607.000000	-0.120072  
607.500000	-0.303129  
608.000000	-0.423571  
608.500000	-0.498290  
609.000000	-0.503898  
609.500000	-0.434842  
610.000000	-0.325596  
610.500000	-0.314976  
611.000000	-0.343283  
611.500000	-0.384618  
612.000000	-0.383817  
612.500000	-0.338853  
613.000000	-0.305849  
613.500000	-0.290014  
614.000000	-0.249214  
614.500000	-0.154346  
615.000000	-0.071753  
615.500000	0.150150   
616.000000	0.606274   
616.500000	1.340574   
617.000000	2.509964   
617.500000	4.036577   
618.000000	5.887893   
618.500000	8.092281   
619.000000	10.672281  
619.500000	13.599863  
620.000000	16.973029  
620.500000	21.151987  
621.000000	26.287387  
621.500000	32.634663  
622.000000	40.114812  
622.500000	48.667531  
623.000000	57.901054  
623.500000	67.467793  
624.000000	77.052698  
624.500000	86.416902  
625.000000	95.165511  
625.500000	103.121059 
626.000000	110.106345 
626.500000	115.998240 
627.000000	120.873024 
627.500000	124.346080 
628.000000	125.927587 
628.500000	125.578715 
629.000000	123.429317 
629.500000	119.196080 
630.000000	113.084071 
630.500000	105.076881 
631.000000	95.527909  
631.500000	85.167484  
632.000000	74.447223  
632.500000	63.605228  
633.000000	53.134351  
633.500000	43.797257  
634.000000	35.675855  
634.500000	28.984853  
635.000000	23.412092  
635.500000	18.730002  
636.000000	14.834366  
636.500000	11.583398  
637.000000	8.750262   
637.500000	6.295872   
638.000000	4.271389   
638.500000	2.712963   
639.000000	1.684252   
639.500000	1.067259   
640.000000	0.742402   
640.500000	0.635302   
641.000000	0.597285   
641.500000	0.568005   
642.000000	0.486921   
642.500000	0.410906   
643.000000	0.349670   
643.500000	0.375615   
644.000000	0.440263   
644.500000	0.492890   
645.000000	0.566443   
645.500000	0.637059   
646.000000	0.597166   
646.500000	0.464145   
647.000000	0.298018   
647.500000	0.080764   
648.000000	-0.125636  
648.500000	-0.309921  
649.000000	-0.469590  
649.500000	-0.510544  
650.000000	-0.401473  
650.500000	-0.311793  
651.000000	-0.222077  
651.500000	-0.102577  
652.000000	0.001570   
652.500000	0.095046   
653.000000	0.208412   
653.500000	0.316197   
654.000000	0.409963   
654.500000	0.621321   
655.000000	0.780291   
655.500000	0.900989   
656.000000	1.022968   
656.500000	1.050529   
657.000000	1.022356   
657.500000	0.984674   
658.000000	0.944802   
658.500000	0.791880   
659.000000	0.664738   
659.500000	0.526975   
660.000000	0.443452   
660.500000	0.435780   
661.000000	0.426039   
661.500000	0.458191   
662.000000	0.525893   
662.500000	0.677032   
663.000000	0.792236   
663.500000	0.892245   
664.000000	1.035409   
664.500000	1.237407   
665.000000	1.475095   
665.500000	1.725600   
666.000000	2.032950   
666.500000	2.295118   
667.000000	2.464454   
667.500000	2.553766   
668.000000	2.496464   
668.500000	2.399019   
669.000000	2.342574   
669.500000	2.314524   
670.000000	2.365652   
670.500000	2.581586   
671.000000	2.848451   
671.500000	3.081241   
672.000000	3.273047   
672.500000	3.328390   
673.000000	3.315241   
673.500000	3.248441   
674.000000	3.165951   
674.500000	3.118553   
675.000000	3.204958   
675.500000	3.432771   
676.000000	3.800872   
676.500000	4.233290   
677.000000	4.635856   
677.500000	4.977427   
678.000000	5.206377   
678.500000	5.312037   
679.000000	5.317705   
679.500000	5.201072   
680.000000	5.054561   
680.500000	4.991986   
681.000000	4.980354   
681.500000	4.978857   
682.000000	5.103179   
682.500000	5.371510   
683.000000	5.755381   
683.500000	6.229595   
684.000000	6.697789   
684.500000	7.115260   
685.000000	7.527550   
685.500000	7.891166   
686.000000	8.111412   
686.500000	8.275054   
687.000000	8.414760   
687.500000	8.528899   
688.000000	8.621549   
688.500000	8.757930   
689.000000	8.894687   
689.500000	9.029109   
690.000000	9.161843   
690.500000	9.241391   
691.000000	9.357820   
691.500000	9.438036   
692.000000	9.466058   
692.500000	9.412622   
693.000000	9.416192   
693.500000	9.450359   
694.000000	9.534203   
694.500000	9.671943   
695.000000	9.855794   
695.500000	10.220317  
696.000000	10.588613  
696.500000	10.916364  
697.000000	11.130882  
697.500000	11.349472  
698.000000	11.550166  
698.500000	11.648735  
699.000000	11.722792  
699.500000	11.728867  
700.000000	11.789000  
700.500000	11.812745  
701.000000	11.834912  
701.500000	11.826187  
702.000000	11.906663  
702.500000	12.054779  
703.000000	12.153676  
703.500000	12.253361  
704.000000	12.344889  
704.500000	12.429494  
705.000000	12.486670  
705.500000	12.478361  
706.000000	12.421359  
706.500000	12.403312  
707.000000	12.443806  
707.500000	12.420097  
708.000000	12.360225  
708.500000	12.388000  
709.000000	12.423957  
709.500000	12.487763  
710.000000	12.486996  
710.500000	12.469391  
711.000000	12.557372  
711.500000	12.675648  
712.000000	12.753310  
712.500000	12.751463  
713.000000	12.801810  
713.500000	12.893384  
714.000000	13.053834  
714.500000	13.202660  
715.000000	13.227122  
715.500000	13.234098  
716.000000	13.182834  
716.500000	13.068904  
717.000000	12.938992  
717.500000	12.860247  
718.000000	12.861940  
718.500000	12.934953  
719.000000	13.212917  
719.500000	13.547249  
720.000000	13.902105  
720.500000	14.178615  
721.000000	14.400660  
721.500000	14.521753  
722.000000	14.545518  
722.500000	14.452593  
723.000000	14.128551  
723.500000	13.802533  
724.000000	13.560422  
724.500000	13.393578  
725.000000	13.217317  
725.500000	13.133777  
726.000000	13.053271  
726.500000	13.062260  
727.000000	13.151189  
727.500000	13.225674  
728.000000	13.336545  
728.500000	13.413622  
729.000000	13.522003  
729.500000	13.642106  
730.000000	13.783249  
730.500000	13.740577  
731.000000	13.612651  
731.500000	13.426759  
732.000000	13.241195  
732.500000	13.124190  
733.000000	12.886215  
733.500000	12.661985  
734.000000	12.548900  
734.500000	12.524213  
735.000000	12.399720  
735.500000	12.230926  
736.000000	12.004756  
736.500000	11.799188  
737.000000	11.745358  
737.500000	11.641467  
738.000000	11.500789  
738.500000	11.482637  
739.000000	11.638334  
739.500000	11.759664  
740.000000	11.845555  
740.500000	11.913772  
741.000000	11.886896  
741.500000	11.781353  
742.000000	11.593741  
742.500000	11.294338  
743.000000	11.002220  
743.500000	10.920711  
744.000000	10.965361  
744.500000	11.139601  
745.000000	11.393796  
745.500000	11.637825  
746.000000	11.722679  
746.500000	11.720071  
747.000000	11.510463  
747.500000	11.107179  
748.000000	10.681639  
748.500000	10.338964  
749.000000	10.112952  
749.500000	10.087393  
750.000000	10.255856  
750.500000	10.462069  
751.000000	10.715267  
751.500000	10.944032  
752.000000	11.045877  
752.500000	10.870506  
753.000000	10.614822  
753.500000	10.143823  
754.000000	9.601432   
754.500000	9.109246   
755.000000	8.646710   
755.500000	8.257493   
756.000000	8.093335   
756.500000	8.153730   
757.000000	8.153564   
757.500000	8.259473   
758.000000	8.319239   
758.500000	8.370849   
759.000000	8.368920   
759.500000	8.328297   
760.000000	8.186684   
760.500000	8.164535   
761.000000	8.229643   
761.500000	8.218308   
762.000000	8.169280   
762.500000	8.124911   
763.000000	8.103505   
763.500000	8.040956   
764.000000	8.019399   
764.500000	7.976909   
765.000000	8.033354   
765.500000	8.152833   
766.000000	8.305336   
766.500000	8.261978   
767.000000	8.111073   
767.500000	7.897298   
768.000000	7.505542   
768.500000	7.071435   
769.000000	6.549105   
769.500000	6.136851   
770.000000	5.822559   
770.500000	5.718702   
771.000000	5.627207   
771.500000	5.639421   
772.000000	5.742906   
772.500000	5.782320   
773.000000	5.840971   
773.500000	5.850611   
774.000000	5.852331   
774.500000	5.839073   
775.000000	5.907363   
775.500000	5.869953   
776.000000	5.904672   
776.500000	5.958410   
777.000000	5.895986   
777.500000	5.836550   
778.000000	5.751986   
778.500000	5.648640   
779.000000	5.504562   
779.500000	5.363579   
780.000000	5.082315   
780.500000	4.823928   
781.000000	4.589987   
781.500000	4.293903   
782.000000	3.935637   
782.500000	3.680412   
783.000000	3.526465   
783.500000	3.498708   
784.000000	3.565417   
784.500000	3.679577   
785.000000	3.795882   
785.500000	3.923157   
786.000000	4.008662   
786.500000	3.959488   
787.000000	3.809722   
787.500000	3.563803   
788.000000	3.322135   
788.500000	3.111032   
789.000000	3.020251   
789.500000	2.909017   
790.000000	2.843573   
790.500000	2.859644   
791.000000	2.886766   
791.500000	2.874212   
792.000000	2.849739   
792.500000	2.880443   
793.000000	2.907450   
793.500000	3.096422   
794.000000	3.283839   
794.500000	3.455238   
795.000000	3.561578   
795.500000	3.641630   
796.000000	3.570305   
796.500000	3.424982   
797.000000	3.264101   
797.500000	3.006478   
798.000000	2.852178   
798.500000	2.718077   
799.000000	2.609643   
799.500000	2.498344   
800.000000	2.473356   
800.500000	2.355575   
801.000000	2.208544   
801.500000	2.150156   
802.000000	2.056361   
802.500000	2.031344   
803.000000	2.016543   
803.500000	1.991123   
804.000000	1.871188   
804.500000	1.805348   
805.000000	1.743432   
805.500000	1.617186   
806.000000	1.567438   
806.500000	1.584951   
807.000000	1.704878   
807.500000	1.838424   
808.000000	1.922548   
808.500000	1.888556   
809.000000	1.796028   
809.500000	1.696435   
810.000000	1.483073   
810.500000	1.284039   
811.000000	1.111673   
811.500000	1.102091   
812.000000	1.184108   
812.500000	1.315098   
813.000000	1.421094   
813.500000	1.501740   
814.000000	1.560362   
814.500000	1.510547   
815.000000	1.449164   
815.500000	1.312764   
816.000000	1.246558   
816.500000	1.200211   
817.000000	1.195399   
817.500000	1.256894   
818.000000	1.309206   
818.500000	1.353458   
819.000000	1.403464   
819.500000	1.486685   
820.000000	1.528544   
820.500000	1.586838   
821.000000	1.570007   
821.500000	1.524870   
822.000000	1.517611   
822.500000	1.395423   
823.000000	1.198012   
823.500000	1.065684   
824.000000	0.939426   
824.500000	0.836626   
825.000000	0.787025   
825.500000	0.732152   
826.000000	0.662054   
826.500000	0.656862   
827.000000	0.602829   
827.500000	0.503037   
828.000000	0.500365   
828.500000	0.463949   
829.000000	0.438523   
829.500000	0.417066   
830.000000	0.380594   
830.500000	0.314919   
831.000000	0.203880   
831.500000	0.049801   
832.000000	-0.092790  
832.500000	-0.136730  
833.000000	-0.168175  
833.500000	-0.155448  
834.000000	-0.090094  
834.500000	0.061969   
835.000000	0.254283   
835.500000	0.409189   
836.000000	0.521770   
836.500000	0.619824   
837.000000	0.703575   
837.500000	0.699945   
838.000000	0.622746   
838.500000	0.448716   
839.000000	0.225478   
839.500000	0.031175   
840.000000	-0.213955  
840.500000	-0.482118  
841.000000	-0.660094  
841.500000	-0.722553  
842.000000	-0.699674  
842.500000	-0.599193  
843.000000	-0.452309  
843.500000	-0.286205  
844.000000	-0.039882  
844.500000	0.152157   
845.000000	0.259670   
845.500000	0.323723   
846.000000	0.351480   
846.500000	0.286361   
847.000000	0.200282   
847.500000	0.100174   
848.000000	-0.020852  
848.500000	-0.050456  
849.000000	-0.013202  
849.500000	0.068111   
850.000000	0.189794   
850.500000	0.371806   
851.000000	0.502273   
851.500000	0.578757   
852.000000	0.592918   
852.500000	0.529001   
853.000000	0.375650   
853.500000	0.202606   
854.000000	0.070882   
854.500000	-0.022105  
855.000000	-0.006038  
855.500000	0.011326   
856.000000	0.035264   
856.500000	0.083502   
857.000000	0.132732   
857.500000	0.140745   
858.000000	0.102465   
858.500000	0.055799   
859.000000	-0.000711  
859.500000	-0.025566  
860.000000	-0.012344  
860.500000	-0.047609  
861.000000	-0.070811  
861.500000	-0.070971  
862.000000	-0.057155  
862.500000	-0.087570  
863.000000	-0.193475  
863.500000	-0.341999  
864.000000	-0.502706  
864.500000	-0.624096  
865.000000	-0.794103  
865.500000	-0.914908  
866.000000	-0.961884  
866.500000	-0.889640  
867.000000	-0.762755  
867.500000	-0.648070  
868.000000	-0.571893  
868.500000	-0.536956  
869.000000	-0.446833  
869.500000	-0.421281  
870.000000	-0.449215  
870.500000	-0.509580  
871.000000	-0.531762  
871.500000	-0.539609  
872.000000	-0.560307  
872.500000	-0.632099  
873.000000	-0.755694  
873.500000	-0.788513  
874.000000	-0.760723  
874.500000	-0.689582  
875.000000	-0.603712  
875.500000	-0.486059  
876.000000	-0.346727  
876.500000	-0.184531  
877.000000	-0.103254  
877.500000	-0.179476  
878.000000	-0.322610  
878.500000	-0.452847  
879.000000	-0.565735  
879.500000	-0.652774  
880.000000	-0.714214  
880.500000	-0.734905  
881.000000	-0.670933  
881.500000	-0.573103  
882.000000	-0.514934  
882.500000	-0.516548  
883.000000	-0.551122  
883.500000	-0.628094  
884.000000	-0.703060  
884.500000	-0.757931  
885.000000	-0.834275  
885.500000	-0.859105  
886.000000	-0.812616  
886.500000	-0.752375  
887.000000	-0.694865  
887.500000	-0.624332  
888.000000	-0.600195  
888.500000	-0.581843  
889.000000	-0.524185  
889.500000	-0.521020  
890.000000	-0.553379  
890.500000	-0.545668  
891.000000	-0.565486  
891.500000	-0.585141  
892.000000	-0.585266  
892.500000	-0.592261  
893.000000	-0.572799  
893.500000	-0.497998  
894.000000	-0.410609  
894.500000	-0.326145  

