PE FL                   SPECTRUM    ASCII       PEDS        1.60        
  -1
PMPPP_~2
23/10/12
11:07:32.00
23/10/12
11:07:32.00


894.500000
1









LS55
316.00
5.00
5.00
SCAN
1
20
100
500
0
100
0
1
0
1
7
ON
900 316 
1 0 0
#HDR
-1
-1
#GR
NM

0.00002384185791015625
0.0
330.000000
0.500000
1130
8
90.591837
-1.966929
#DATA
330.000000	5.986000  
330.500000	7.386053  
331.000000	8.792847  
331.500000	10.087325 
332.000000	11.355670 
332.500000	12.443455 
333.000000	13.546451 
333.500000	14.551252 
334.000000	15.550238 
334.500000	16.429128 
335.000000	17.265310 
335.500000	18.082544 
336.000000	18.903373 
336.500000	19.794116 
337.000000	20.699495 
337.500000	21.820771 
338.000000	23.107782 
338.500000	24.680725 
339.000000	26.339528 
339.500000	28.216885 
340.000000	30.228922 
340.500000	32.272140 
341.000000	34.391608 
341.500000	36.554098 
342.000000	38.954680 
342.500000	41.403802 
343.000000	44.167075 
343.500000	46.891400 
344.000000	49.787227 
344.500000	52.711198 
345.000000	55.335309 
345.500000	57.740487 
346.000000	59.898654 
346.500000	61.958906 
347.000000	63.716940 
347.500000	65.515571 
348.000000	67.201927 
348.500000	69.135048 
349.000000	71.334560 
349.500000	73.316920 
350.000000	75.244077 
350.500000	76.984965 
351.000000	78.479597 
351.500000	79.539472 
352.000000	80.189721 
352.500000	80.375077 
353.000000	80.595874 
353.500000	81.126493 
354.000000	81.827217 
354.500000	82.722834 
355.000000	83.756027 
355.500000	84.935578 
356.000000	86.283469 
356.500000	87.408469 
357.000000	88.051428 
357.500000	88.419439 
358.000000	88.751314 
358.500000	89.148587 
359.000000	89.575184 
359.500000	89.864060 
360.000000	90.155491 
360.500000	90.447408 
361.000000	90.591837 
361.500000	90.437143 
362.000000	89.928672 
362.500000	89.284968 
363.000000	88.763443 
363.500000	88.330188 
364.000000	87.729307 
364.500000	87.128490 
365.000000	86.477433 
365.500000	85.707942 
366.000000	84.957275 
366.500000	84.000542 
367.000000	82.958836 
367.500000	81.916375 
368.000000	80.962428 
368.500000	79.833922 
369.000000	78.712049 
369.500000	77.694068 
370.000000	76.789493 
370.500000	76.153370 
371.000000	75.625489 
371.500000	75.346329 
372.000000	75.122437 
372.500000	74.939471 
373.000000	74.603673 
373.500000	74.004172 
374.000000	73.278681 
374.500000	72.296988 
375.000000	71.087004 
375.500000	69.914311 
376.000000	68.967955 
376.500000	67.960757 
377.000000	66.820909 
377.500000	65.680679 
378.000000	64.533219 
378.500000	63.602648 
379.000000	62.685083 
379.500000	61.570167 
380.000000	60.568676 
380.500000	59.844179 
381.000000	59.162073 
381.500000	58.334315 
382.000000	57.445497 
382.500000	56.552749 
383.000000	55.844383 
383.500000	55.073171 
384.000000	54.007147 
384.500000	52.913597 
385.000000	51.821681 
385.500000	50.832651 
386.000000	49.896503 
386.500000	48.969384 
387.000000	48.232327 
387.500000	47.769241 
388.000000	47.332728 
388.500000	46.788329 
389.000000	46.144710 
389.500000	45.314447 
390.000000	44.504478 
390.500000	43.687826 
391.000000	42.591377 
391.500000	41.429062 
392.000000	40.491949 
392.500000	39.687032 
393.000000	38.763776 
393.500000	37.679432 
394.000000	36.449084 
394.500000	35.284935 
395.000000	34.181282 
395.500000	32.974520 
396.000000	31.676743 
396.500000	30.568687 
397.000000	29.878541 
397.500000	29.327379 
398.000000	28.948677 
398.500000	28.771771 
399.000000	28.682544 
399.500000	28.698241 
400.000000	28.622192 
400.500000	28.318129 
401.000000	27.777054 
401.500000	27.340460 
402.000000	26.837034 
402.500000	26.334877 
403.000000	25.943304 
403.500000	25.508811 
404.000000	25.118942 
404.500000	24.683148 
405.000000	24.275557 
405.500000	23.730694 
406.000000	23.310170 
406.500000	22.945038 
407.000000	22.669353 
407.500000	22.517521 
408.000000	22.348316 
408.500000	22.227434 
409.000000	22.052866 
409.500000	21.881724 
410.000000	21.553538 
410.500000	21.215876 
411.000000	20.964905 
411.500000	20.825940 
412.000000	20.761328 
412.500000	20.702772 
413.000000	20.509516 
413.500000	20.270236 
414.000000	19.959760 
414.500000	19.514628 
415.000000	19.058328 
415.500000	18.590634 
416.000000	18.165912 
416.500000	17.845389 
417.000000	17.657111 
417.500000	17.420174 
418.000000	17.131985 
418.500000	16.811456 
419.000000	16.528320 
419.500000	16.297482 
420.000000	16.031652 
420.500000	15.777901 
421.000000	15.652942 
421.500000	15.736760 
422.000000	15.895479 
422.500000	15.873010 
423.000000	15.714963 
423.500000	15.492921 
424.000000	15.220563 
424.500000	14.760613 
425.000000	14.178415 
425.500000	13.618537 
426.000000	13.132503 
426.500000	12.898481 
427.000000	12.627711 
427.500000	12.330527 
428.000000	12.147342 
428.500000	12.071619 
429.000000	11.905835 
429.500000	11.696782 
430.000000	11.518605 
430.500000	11.297920 
431.000000	11.109171 
431.500000	10.844445 
432.000000	10.436926 
432.500000	9.993360  
433.000000	9.589590  
433.500000	9.206745  
434.000000	8.833750  
434.500000	8.572124  
435.000000	8.461660  
435.500000	8.471113  
436.000000	8.553703  
436.500000	8.495951  
437.000000	8.292641  
437.500000	7.982508  
438.000000	7.678362  
438.500000	7.334675  
439.000000	6.958915  
439.500000	6.725974  
440.000000	6.668054  
440.500000	6.745653  
441.000000	6.853485  
441.500000	6.928488  
442.000000	6.875020  
442.500000	6.869068  
443.000000	6.832139  
443.500000	6.701376  
444.000000	6.534518  
444.500000	6.431116  
445.000000	6.381701  
445.500000	6.379720  
446.000000	6.373735  
446.500000	6.260921  
447.000000	6.130266  
447.500000	5.878229  
448.000000	5.592062  
448.500000	5.275514  
449.000000	5.001282  
449.500000	4.731718  
450.000000	4.500215  
450.500000	4.347334  
451.000000	4.232832  
451.500000	4.268692  
452.000000	4.202337  
452.500000	4.128576  
453.000000	4.121286  
453.500000	4.205083  
454.000000	4.208234  
454.500000	4.093029  
455.000000	3.966597  
455.500000	3.865864  
456.000000	3.788872  
456.500000	3.592701  
457.000000	3.279752  
457.500000	3.079150  
458.000000	3.103200  
458.500000	3.175341  
459.000000	3.232463  
459.500000	3.287565  
460.000000	3.433754  
460.500000	3.598363  
461.000000	3.665182  
461.500000	3.425047  
462.000000	3.085561  
462.500000	2.763718  
463.000000	2.478228  
463.500000	2.343023  
464.000000	2.294607  
464.500000	2.436043  
465.000000	2.730676  
465.500000	3.148005  
466.000000	3.410678  
466.500000	3.503268  
467.000000	3.347571  
467.500000	2.957082  
468.000000	2.525200  
468.500000	2.030886  
469.000000	1.607216  
469.500000	1.322124  
470.000000	1.272394  
470.500000	1.368973  
471.000000	1.601674  
471.500000	1.832413  
472.000000	1.949304  
472.500000	2.010045  
473.000000	2.012995  
473.500000	2.039397  
474.000000	1.971693  
474.500000	1.924795  
475.000000	1.864622  
475.500000	1.848051  
476.000000	1.849526  
476.500000	1.821018  
477.000000	1.704396  
477.500000	1.503467  
478.000000	1.250061  
478.500000	0.907735  
479.000000	0.649744  
479.500000	0.480528  
480.000000	0.450191  
480.500000	0.523105  
481.000000	0.613753  
481.500000	0.753926  
482.000000	0.974583  
482.500000	1.177401  
483.000000	1.257853  
483.500000	1.358782  
484.000000	1.533951  
484.500000	1.756374  
485.000000	1.938226  
485.500000	1.978814  
486.000000	1.908622  
486.500000	1.846050  
487.000000	1.753531  
487.500000	1.568859  
488.000000	1.333063  
488.500000	1.175685  
489.000000	1.082228  
489.500000	1.099461  
490.000000	1.085910  
490.500000	0.957133  
491.000000	0.832336  
491.500000	0.735887  
492.000000	0.633639  
492.500000	0.499175  
493.000000	0.474709  
493.500000	0.474307  
494.000000	0.518795  
494.500000	0.607199  
495.000000	0.622877  
495.500000	0.636911  
496.000000	0.627805  
496.500000	0.601770  
497.000000	0.494609  
497.500000	0.422469  
498.000000	0.348862  
498.500000	0.254855  
499.000000	0.210565  
499.500000	0.171839  
500.000000	0.190440  
500.500000	0.298890  
501.000000	0.470463  
501.500000	0.632258  
502.000000	0.771716  
502.500000	0.975644  
503.000000	1.101961  
503.500000	1.168175  
504.000000	1.158095  
504.500000	1.077112  
505.000000	0.994292  
505.500000	0.912468  
506.000000	0.861022  
506.500000	0.788646  
507.000000	0.725485  
507.500000	0.590343  
508.000000	0.441256  
508.500000	0.251651  
509.000000	0.066333  
509.500000	-0.058664 
510.000000	-0.135769 
510.500000	-0.144158 
511.000000	-0.090746 
511.500000	0.016247  
512.000000	0.105120  
512.500000	0.201164  
513.000000	0.222512  
513.500000	0.248103  
514.000000	0.283810  
514.500000	0.287854  
515.000000	0.261120  
515.500000	0.285543  
516.000000	0.303795  
516.500000	0.312090  
517.000000	0.349615  
517.500000	0.326872  
518.000000	0.303831  
518.500000	0.300858  
519.000000	0.254840  
519.500000	0.203338  
520.000000	0.182496  
520.500000	0.148947  
521.000000	0.137541  
521.500000	0.202162  
522.000000	0.259954  
522.500000	0.294387  
523.000000	0.307314  
523.500000	0.191601  
524.000000	0.000817  
524.500000	-0.187415 
525.000000	-0.420014 
525.500000	-0.646934 
526.000000	-0.759942 
526.500000	-0.762871 
527.000000	-0.625508 
527.500000	-0.449212 
528.000000	-0.281308 
528.500000	-0.111665 
529.000000	0.050148  
529.500000	0.136351  
530.000000	0.022290  
530.500000	-0.178482 
531.000000	-0.432645 
531.500000	-0.608597 
532.000000	-0.799098 
532.500000	-0.928645 
533.000000	-1.000098 
533.500000	-0.915499 
534.000000	-0.722119 
534.500000	-0.606604 
535.000000	-0.521799 
535.500000	-0.471495 
536.000000	-0.389074 
536.500000	-0.369970 
537.000000	-0.332212 
537.500000	-0.314346 
538.000000	-0.214001 
538.500000	-0.025075 
539.000000	0.098630  
539.500000	0.156811  
540.000000	0.192264  
540.500000	0.212831  
541.000000	0.146765  
541.500000	0.026750  
542.000000	-0.137295 
542.500000	-0.251542 
543.000000	-0.306750 
543.500000	-0.353827 
544.000000	-0.400046 
544.500000	-0.405970 
545.000000	-0.350674 
545.500000	-0.303242 
546.000000	-0.288532 
546.500000	-0.295399 
547.000000	-0.233248 
547.500000	-0.138156 
548.000000	-0.025599 
548.500000	0.075509  
549.000000	0.149157  
549.500000	0.206673  
550.000000	0.238599  
550.500000	0.200667  
551.000000	0.060827  
551.500000	-0.075809 
552.000000	-0.222260 
552.500000	-0.382247 
553.000000	-0.531638 
553.500000	-0.601595 
554.000000	-0.586194 
554.500000	-0.542067 
555.000000	-0.450793 
555.500000	-0.356443 
556.000000	-0.270775 
556.500000	-0.234177 
557.000000	-0.223270 
557.500000	-0.322962 
558.000000	-0.461119 
558.500000	-0.584524 
559.000000	-0.667094 
559.500000	-0.700945 
560.000000	-0.670936 
560.500000	-0.617514 
561.000000	-0.577027 
561.500000	-0.477564 
562.000000	-0.447644 
562.500000	-0.498397 
563.000000	-0.590537 
563.500000	-0.621102 
564.000000	-0.607400 
564.500000	-0.540236 
565.000000	-0.439817 
565.500000	-0.342600 
566.000000	-0.165302 
566.500000	0.067578  
567.000000	0.250772  
567.500000	0.301104  
568.000000	0.319173  
568.500000	0.258367  
569.000000	0.112640  
569.500000	-0.063357 
570.000000	-0.227074 
570.500000	-0.372922 
571.000000	-0.390039 
571.500000	-0.337406 
572.000000	-0.263210 
572.500000	-0.164394 
573.000000	-0.096551 
573.500000	-0.135993 
574.000000	-0.237671 
574.500000	-0.350616 
575.000000	-0.483155 
575.500000	-0.607386 
576.000000	-0.704027 
576.500000	-0.756845 
577.000000	-0.755878 
577.500000	-0.659985 
578.000000	-0.574014 
578.500000	-0.558150 
579.000000	-0.568888 
579.500000	-0.546186 
580.000000	-0.540091 
580.500000	-0.541452 
581.000000	-0.545345 
581.500000	-0.572905 
582.000000	-0.523868 
582.500000	-0.423563 
583.000000	-0.365845 
583.500000	-0.345922 
584.000000	-0.271453 
584.500000	-0.206380 
585.000000	-0.185741 
585.500000	-0.196442 
586.000000	-0.215750 
586.500000	-0.247053 
587.000000	-0.286452 
587.500000	-0.385870 
588.000000	-0.472020 
588.500000	-0.576627 
589.000000	-0.707574 
589.500000	-0.884157 
590.000000	-1.064498 
590.500000	-1.167597 
591.000000	-1.208773 
591.500000	-1.212103 
592.000000	-1.211211 
592.500000	-1.088304 
593.000000	-0.941089 
593.500000	-0.791135 
594.000000	-0.661119 
594.500000	-0.576742 
595.000000	-0.515471 
595.500000	-0.497500 
596.000000	-0.527226 
596.500000	-0.620906 
597.000000	-0.640387 
597.500000	-0.648706 
598.000000	-0.640407 
598.500000	-0.635155 
599.000000	-0.600399 
599.500000	-0.593135 
600.000000	-0.595899 
600.500000	-0.618164 
601.000000	-0.691342 
601.500000	-0.765816 
602.000000	-0.860206 
602.500000	-0.973302 
603.000000	-1.091265 
603.500000	-1.167461 
604.000000	-1.242697 
604.500000	-1.264533 
605.000000	-1.244463 
605.500000	-1.205742 
606.000000	-1.159853 
606.500000	-1.071507 
607.000000	-0.997407 
607.500000	-0.946832 
608.000000	-0.898299 
608.500000	-0.841306 
609.000000	-0.815340 
609.500000	-0.813245 
610.000000	-0.872968 
610.500000	-0.948051 
611.000000	-0.977151 
611.500000	-1.045555 
612.000000	-1.113627 
612.500000	-1.178715 
613.000000	-1.157030 
613.500000	-1.070492 
614.000000	-0.941552 
614.500000	-0.829495 
615.000000	-0.681916 
615.500000	-0.518709 
616.000000	-0.398528 
616.500000	-0.311362 
617.000000	-0.253030 
617.500000	-0.209708 
618.000000	-0.196222 
618.500000	-0.221257 
619.000000	-0.323347 
619.500000	-0.317582 
620.000000	-0.262718 
620.500000	-0.136170 
621.000000	0.052779  
621.500000	0.468455  
622.000000	0.967626  
622.500000	1.544681  
623.000000	2.195420  
623.500000	2.865973  
624.000000	3.619364  
624.500000	4.423929  
625.000000	5.143991  
625.500000	5.711285  
626.000000	6.315939  
626.500000	6.768909  
627.000000	7.046386  
627.500000	7.176033  
628.000000	7.199702  
628.500000	7.070911  
629.000000	6.937216  
629.500000	6.725288  
630.000000	6.414086  
630.500000	6.107658  
631.000000	5.692784  
631.500000	5.167011  
632.000000	4.497440  
632.500000	3.814772  
633.000000	3.036524  
633.500000	2.337083  
634.000000	1.699997  
634.500000	1.211315  
635.000000	0.866702  
635.500000	0.633292  
636.000000	0.507194  
636.500000	0.394769  
637.000000	0.335851  
637.500000	0.276851  
638.000000	0.164441  
638.500000	0.034320  
639.000000	-0.096233 
639.500000	-0.269267 
640.000000	-0.385404 
640.500000	-0.425991 
641.000000	-0.444313 
641.500000	-0.482087 
642.000000	-0.477710 
642.500000	-0.458035 
643.000000	-0.407482 
643.500000	-0.338273 
644.000000	-0.303338 
644.500000	-0.247498 
645.000000	-0.201183 
645.500000	-0.129355 
646.000000	-0.097796 
646.500000	-0.079754 
647.000000	-0.112385 
647.500000	-0.124421 
648.000000	-0.142619 
648.500000	-0.170426 
649.000000	-0.191285 
649.500000	-0.213754 
650.000000	-0.164898 
650.500000	-0.098362 
651.000000	0.002336  
651.500000	0.093607  
652.000000	0.190736  
652.500000	0.234761  
653.000000	0.272176  
653.500000	0.279155  
654.000000	0.208874  
654.500000	0.180723  
655.000000	0.143093  
655.500000	0.119365  
656.000000	0.131438  
656.500000	0.198912  
657.000000	0.297307  
657.500000	0.387610  
658.000000	0.537584  
658.500000	0.648633  
659.000000	0.823825  
659.500000	0.970055  
660.000000	1.105110  
660.500000	1.304716  
661.000000	1.539460  
661.500000	1.785978  
662.000000	1.969359  
662.500000	2.169748  
663.000000	2.333778  
663.500000	2.499474  
664.000000	2.561558  
664.500000	2.589791  
665.000000	2.694227  
665.500000	2.815374  
666.000000	2.966815  
666.500000	3.169703  
667.000000	3.396350  
667.500000	3.680286  
668.000000	4.060871  
668.500000	4.468848  
669.000000	4.890288  
669.500000	5.445939  
670.000000	5.963825  
670.500000	6.442037  
671.000000	6.922509  
671.500000	7.241181  
672.000000	7.477694  
672.500000	7.640585  
673.000000	7.670351  
673.500000	7.605576  
674.000000	7.664118  
674.500000	7.795952  
675.000000	8.004055  
675.500000	8.372994  
676.000000	8.834510  
676.500000	9.392825  
677.000000	10.066478 
677.500000	10.741453 
678.000000	11.306433 
678.500000	11.784200 
679.000000	12.239269 
679.500000	12.594872 
680.000000	12.831340 
680.500000	12.989031 
681.000000	13.098745 
681.500000	13.313203 
682.000000	13.501799 
682.500000	13.625636 
683.000000	13.622837 
683.500000	13.756637 
684.000000	14.000663 
684.500000	14.331669 
685.000000	14.902049 
685.500000	15.595754 
686.000000	16.426530 
686.500000	17.265761 
687.000000	18.004914 
687.500000	18.435236 
688.000000	18.635236 
688.500000	18.701091 
689.000000	18.650636 
689.500000	18.549832 
690.000000	18.478408 
690.500000	18.558665 
691.000000	18.725332 
691.500000	18.958326 
692.000000	19.134561 
692.500000	19.239768 
693.000000	19.337033 
693.500000	19.450649 
694.000000	19.508016 
694.500000	19.596112 
695.000000	19.792117 
695.500000	20.052426 
696.000000	20.337406 
696.500000	20.638446 
697.000000	20.932530 
697.500000	21.213824 
698.000000	21.541499 
698.500000	21.773294 
699.000000	21.872863 
699.500000	21.948703 
700.000000	21.977224 
700.500000	21.934567 
701.000000	21.863652 
701.500000	21.833011 
702.000000	21.833482 
702.500000	21.924535 
703.000000	22.039524 
703.500000	22.146283 
704.000000	22.251853 
704.500000	22.376490 
705.000000	22.500587 
705.500000	22.654060 
706.000000	22.838842 
706.500000	23.009269 
707.000000	23.187149 
707.500000	23.287584 
708.000000	23.403929 
708.500000	23.463415 
709.000000	23.513555 
709.500000	23.547822 
710.000000	23.612349 
710.500000	23.684558 
711.000000	23.807383 
711.500000	23.949888 
712.000000	23.943476 
712.500000	23.914765 
713.000000	23.804889 
713.500000	23.676988 
714.000000	23.531549 
714.500000	23.449043 
715.000000	23.330456 
715.500000	23.337891 
716.000000	23.493297 
716.500000	23.622359 
717.000000	23.728615 
717.500000	23.864756 
718.000000	24.014397 
718.500000	24.151188 
719.000000	24.351664 
719.500000	24.425294 
720.000000	24.387958 
720.500000	24.335069 
721.000000	24.251924 
721.500000	24.092530 
722.000000	23.968845 
722.500000	23.799725 
723.000000	23.571857 
723.500000	23.444360 
724.000000	23.326731 
724.500000	23.157535 
725.000000	23.027209 
725.500000	22.967022 
726.000000	22.928671 
726.500000	23.034620 
727.000000	23.162956 
727.500000	23.283602 
728.000000	23.448461 
728.500000	23.669065 
729.000000	23.821833 
729.500000	23.889596 
730.000000	23.914133 
730.500000	23.814780 
731.000000	23.714786 
731.500000	23.522626 
732.000000	23.312541 
732.500000	23.130679 
733.000000	23.006661 
733.500000	22.884083 
734.000000	22.821527 
734.500000	22.848997 
735.000000	22.841908 
735.500000	22.888497 
736.000000	22.883463 
736.500000	22.878178 
737.000000	22.836671 
737.500000	22.765191 
738.000000	22.617376 
738.500000	22.497728 
739.000000	22.411983 
739.500000	22.331072 
740.000000	22.351344 
740.500000	22.332394 
741.000000	22.352264 
741.500000	22.358370 
742.000000	22.349205 
742.500000	22.242910 
743.000000	22.072703 
743.500000	21.861900 
744.000000	21.651899 
744.500000	21.603712 
745.000000	21.597072 
745.500000	21.667011 
746.000000	21.741953 
746.500000	21.814812 
747.000000	21.849222 
747.500000	21.753182 
748.000000	21.525553 
748.500000	21.187387 
749.000000	20.958218 
749.500000	20.765111 
750.000000	20.620711 
750.500000	20.521734 
751.000000	20.480863 
751.500000	20.511809 
752.000000	20.540088 
752.500000	20.562518 
753.000000	20.453071 
753.500000	20.336965 
754.000000	20.170817 
754.500000	19.940494 
755.000000	19.741692 
755.500000	19.516753 
756.000000	19.387947 
756.500000	19.323050 
757.000000	19.304999 
757.500000	19.280777 
758.000000	19.304682 
758.500000	19.290145 
759.000000	19.207263 
759.500000	19.067546 
760.000000	18.814711 
760.500000	18.589857 
761.000000	18.350012 
761.500000	18.083268 
762.000000	17.899539 
762.500000	17.754211 
763.000000	17.657793 
763.500000	17.569311 
764.000000	17.499515 
764.500000	17.437856 
765.000000	17.416307 
765.500000	17.365822 
766.000000	17.232147 
766.500000	17.059385 
767.000000	16.813953 
767.500000	16.566819 
768.000000	16.261366 
768.500000	15.958364 
769.000000	15.797750 
769.500000	15.754507 
770.000000	15.735121 
770.500000	15.709816 
771.000000	15.664870 
771.500000	15.598321 
772.000000	15.555868 
772.500000	15.390747 
773.000000	15.163395 
773.500000	14.921385 
774.000000	14.672517 
774.500000	14.426784 
775.000000	14.119812 
775.500000	13.708451 
776.000000	13.250293 
776.500000	12.806105 
777.000000	12.357122 
777.500000	12.065094 
778.000000	11.933941 
778.500000	11.940800 
779.000000	12.169795 
779.500000	12.387682 
780.000000	12.575656 
780.500000	12.658405 
781.000000	12.665924 
781.500000	12.530117 
782.000000	12.313410 
782.500000	12.093037 
783.000000	11.812810 
783.500000	11.604759 
784.000000	11.365612 
784.500000	11.140264 
785.000000	10.888125 
785.500000	10.677049 
786.000000	10.451180 
786.500000	10.182882 
787.000000	9.966229  
787.500000	9.794371  
788.000000	9.682140  
788.500000	9.537880  
789.000000	9.371785  
789.500000	9.243974  
790.000000	9.183696  
790.500000	9.194563  
791.000000	9.221994  
791.500000	9.271512  
792.000000	9.323558  
792.500000	9.324761  
793.000000	9.179515  
793.500000	8.878087  
794.000000	8.574997  
794.500000	8.274820  
795.000000	7.992979  
795.500000	7.744537  
796.000000	7.622139  
796.500000	7.513048  
797.000000	7.456586  
797.500000	7.364906  
798.000000	7.195023  
798.500000	7.049538  
799.000000	6.969491  
799.500000	6.943318  
800.000000	6.929904  
800.500000	7.003438  
801.000000	7.054786  
801.500000	7.103388  
802.000000	7.072670  
802.500000	6.956699  
803.000000	6.836977  
803.500000	6.755232  
804.000000	6.725586  
804.500000	6.706994  
805.000000	6.737799  
805.500000	6.738237  
806.000000	6.805079  
806.500000	6.842697  
807.000000	6.810836  
807.500000	6.667741  
808.000000	6.513152  
808.500000	6.348532  
809.000000	6.170953  
809.500000	5.963530  
810.000000	5.691307  
810.500000	5.452350  
811.000000	5.259139  
811.500000	5.111353  
812.000000	4.955254  
812.500000	4.862148  
813.000000	4.795595  
813.500000	4.707402  
814.000000	4.673004  
814.500000	4.605590  
815.000000	4.584806  
815.500000	4.614183  
816.000000	4.701263  
816.500000	4.791582  
817.000000	4.892572  
817.500000	4.934529  
818.000000	4.844465  
818.500000	4.761318  
819.000000	4.642562  
819.500000	4.577354  
820.000000	4.520696  
820.500000	4.476267  
821.000000	4.496098  
821.500000	4.584411  
822.000000	4.565536  
822.500000	4.343720  
823.000000	4.104654  
823.500000	3.780113  
824.000000	3.547976  
824.500000	3.354960  
825.000000	3.248348  
825.500000	3.205562  
826.000000	3.287547  
826.500000	3.428768  
827.000000	3.476439  
827.500000	3.549306  
828.000000	3.518473  
828.500000	3.460525  
829.000000	3.338337  
829.500000	3.248136  
830.000000	3.073103  
830.500000	2.810381  
831.000000	2.577517  
831.500000	2.355712  
832.000000	2.284366  
832.500000	2.274124  
833.000000	2.289472  
833.500000	2.228898  
834.000000	2.259250  
834.500000	2.302287  
835.000000	2.203333  
835.500000	2.004535  
836.000000	1.695147  
836.500000	1.398537  
837.000000	1.230267  
837.500000	1.115616  
838.000000	0.908168  
838.500000	0.745712  
839.000000	0.754078  
839.500000	0.876515  
840.000000	1.076459  
840.500000	1.324499  
841.000000	1.566831  
841.500000	1.948396  
842.000000	2.365032  
842.500000	2.576211  
843.000000	2.515752  
843.500000	2.323818  
844.000000	2.031278  
844.500000	1.697649  
845.000000	1.347154  
845.500000	0.951692  
846.000000	0.703901  
846.500000	0.612947  
847.000000	0.614950  
847.500000	0.565711  
848.000000	0.531030  
848.500000	0.543905  
849.000000	0.634536  
849.500000	0.729265  
850.000000	0.729734  
850.500000	0.687459  
851.000000	0.607568  
851.500000	0.488662  
852.000000	0.299490  
852.500000	0.014462  
853.000000	-0.230530 
853.500000	-0.264948 
854.000000	-0.163423 
854.500000	0.013550  
855.000000	0.251938  
855.500000	0.464967  
856.000000	0.618039  
856.500000	0.715582  
857.000000	0.670989  
857.500000	0.556546  
858.000000	0.508310  
858.500000	0.496515  
859.000000	0.514368  
859.500000	0.534668  
860.000000	0.560229  
860.500000	0.583853  
861.000000	0.565358  
861.500000	0.488227  
862.000000	0.388046  
862.500000	0.345248  
863.000000	0.365083  
863.500000	0.429829  
864.000000	0.477293  
864.500000	0.571754  
865.000000	0.723358  
865.500000	0.848356  
866.000000	0.861498  
866.500000	0.763309  
867.000000	0.600417  
867.500000	0.487537  
868.000000	0.379821  
868.500000	0.212635  
869.000000	0.065993  
869.500000	0.007475  
870.000000	0.015843  
870.500000	0.029054  
871.000000	-0.034055 
871.500000	-0.225487 
872.000000	-0.333890 
872.500000	-0.428943 
873.000000	-0.514755 
873.500000	-0.551074 
874.000000	-0.519111 
874.500000	-0.385695 
875.000000	-0.151140 
875.500000	0.089189  
876.000000	0.165826  
876.500000	0.247141  
877.000000	0.252907  
877.500000	0.183851  
878.000000	0.013855  
878.500000	-0.254416 
879.000000	-0.515998 
879.500000	-0.628556 
880.000000	-0.606032 
880.500000	-0.472707 
881.000000	-0.143987 
881.500000	0.366769  
882.000000	0.897619  
882.500000	1.326397  
883.000000	1.411733  
883.500000	1.198980  
884.000000	0.841911  
884.500000	0.302791  
885.000000	-0.212874 
885.500000	-0.700309 
886.000000	-0.841905 
886.500000	-0.715469 
887.000000	-0.379296 
887.500000	0.108711  
888.000000	0.547450  
888.500000	1.075653  
889.000000	1.540559  
889.500000	1.938831  
890.000000	1.965538  
890.500000	1.932676  
891.000000	1.614784  
891.500000	1.015835  
892.000000	0.307696  
892.500000	-0.623902 
893.000000	-1.440335 
893.500000	-1.862944 
894.000000	-1.927345 
894.500000	-1.966929 

