PE FL                   SPECTRUM    ASCII       PEDS        1.60        
  -1
PM4F47~1
23/10/14
21:08:12.00
23/10/14
21:08:12.00


894.500000
1









LS55
316.00
5.00
5.00
SCAN
1
20
100
500
0
100
0
1
0
1
7
ON
900 316 
1 0 0
#HDR
-1
-1
#GR
NM

0.00002384185791015625
0.0
330.000000
0.500000
1130
8
32.122881
-1.744588
#DATA
330.000000	6.754000  
330.500000	4.567388  
331.000000	2.768654  
331.500000	1.511610  
332.000000	0.847860  
332.500000	0.695230  
333.000000	1.172347  
333.500000	2.085346  
334.000000	3.157124  
334.500000	4.118921  
335.000000	4.950027  
335.500000	5.771640  
336.000000	6.566041  
336.500000	7.171583  
337.000000	7.628835  
337.500000	8.131290  
338.000000	8.719020  
338.500000	9.423490  
339.000000	10.211509 
339.500000	11.176451 
340.000000	12.349991 
340.500000	13.656217 
341.000000	14.827186 
341.500000	15.825842 
342.000000	16.692163 
342.500000	17.455447 
343.000000	18.119100 
343.500000	18.639676 
344.000000	19.077117 
344.500000	19.528609 
345.000000	20.102424 
345.500000	20.575939 
346.000000	21.035498 
346.500000	21.471831 
347.000000	21.861619 
347.500000	22.170535 
348.000000	22.525538 
348.500000	22.957362 
349.000000	23.398183 
349.500000	23.897289 
350.000000	24.377729 
350.500000	24.854224 
351.000000	25.422734 
351.500000	25.972294 
352.000000	26.496496 
352.500000	27.069068 
353.000000	27.786297 
353.500000	28.441443 
354.000000	29.069369 
354.500000	29.729410 
355.000000	30.310345 
355.500000	31.038806 
356.000000	31.564017 
356.500000	31.888509 
357.000000	32.034547 
357.500000	32.122881 
358.000000	32.067819 
358.500000	31.868613 
359.000000	31.687127 
359.500000	31.366939 
360.000000	31.470494 
360.500000	31.678150 
361.000000	31.784250 
361.500000	31.711791 
362.000000	31.422053 
362.500000	30.910618 
363.000000	30.371767 
363.500000	29.797401 
364.000000	29.004762 
364.500000	28.588496 
365.000000	28.578567 
365.500000	28.673732 
366.000000	28.722741 
366.500000	28.509671 
367.000000	28.161626 
367.500000	27.918941 
368.000000	27.649909 
368.500000	27.123771 
369.000000	26.653222 
369.500000	26.449102 
370.000000	26.420735 
370.500000	26.452636 
371.000000	26.276125 
371.500000	25.982041 
372.000000	25.832083 
372.500000	25.707591 
373.000000	25.461182 
373.500000	25.135001 
374.000000	24.816868 
374.500000	24.503782 
375.000000	24.163120 
375.500000	23.574134 
376.000000	22.919540 
376.500000	22.452867 
377.000000	22.218597 
377.500000	22.184593 
378.000000	22.242726 
378.500000	22.347187 
379.000000	22.530533 
379.500000	22.705442 
380.000000	22.655426 
380.500000	22.363264 
381.000000	21.903302 
381.500000	21.395989 
382.000000	20.959321 
382.500000	20.654953 
383.000000	20.389481 
383.500000	20.243462 
384.000000	20.170429 
384.500000	20.053798 
385.000000	19.926025 
385.500000	19.759564 
386.000000	19.544234 
386.500000	19.324405 
387.000000	19.247453 
387.500000	19.169628 
388.000000	19.096539 
388.500000	19.024013 
389.000000	18.891899 
389.500000	18.756947 
390.000000	18.680023 
390.500000	18.504665 
391.000000	18.269998 
391.500000	18.095050 
392.000000	17.928202 
392.500000	17.738093 
393.000000	17.543940 
393.500000	17.314537 
394.000000	17.129532 
394.500000	17.071072 
395.000000	17.000304 
395.500000	16.932756 
396.000000	16.836505 
396.500000	16.678487 
397.000000	16.408682 
397.500000	16.063987 
398.000000	15.505484 
398.500000	14.875440 
399.000000	14.265854 
399.500000	13.768273 
400.000000	13.436691 
400.500000	13.197385 
401.000000	13.139364 
401.500000	13.264270 
402.000000	13.560717 
402.500000	13.758574 
403.000000	13.909491 
403.500000	13.812924 
404.000000	13.629047 
404.500000	13.396452 
405.000000	12.942232 
405.500000	12.434197 
406.000000	11.940881 
406.500000	11.582347 
407.000000	11.244661 
407.500000	11.044348 
408.000000	10.803769 
408.500000	10.612294 
409.000000	10.483895 
409.500000	10.279506 
410.000000	10.105286 
410.500000	9.927191  
411.000000	9.748291  
411.500000	9.588550  
412.000000	9.421888  
412.500000	9.162890  
413.000000	8.948119  
413.500000	8.736079  
414.000000	8.488327  
414.500000	8.252967  
415.000000	7.991339  
415.500000	7.624164  
416.000000	7.386087  
416.500000	7.113574  
417.000000	6.769089  
417.500000	6.599255  
418.000000	6.468064  
418.500000	6.425638  
419.000000	6.458026  
419.500000	6.516889  
420.000000	6.399427  
420.500000	6.376701  
421.000000	6.232920  
421.500000	5.944009  
422.000000	5.767561  
422.500000	5.624135  
423.000000	5.586097  
423.500000	5.614857  
424.000000	5.703434  
424.500000	5.689721  
425.000000	5.690591  
425.500000	5.488058  
426.000000	5.199309  
426.500000	4.864875  
427.000000	4.556128  
427.500000	4.298143  
428.000000	4.072011  
428.500000	3.959764  
429.000000	3.895858  
429.500000	3.854579  
430.000000	3.705612  
430.500000	3.584759  
431.000000	3.381538  
431.500000	3.210194  
432.000000	3.106169  
432.500000	2.999368  
433.000000	3.001256  
433.500000	3.088900  
434.000000	3.136543  
434.500000	3.064369  
435.000000	3.009192  
435.500000	2.850486  
436.000000	2.682026  
436.500000	2.526241  
437.000000	2.301457  
437.500000	2.096273  
438.000000	1.958902  
438.500000	1.861740  
439.000000	1.716345  
439.500000	1.620582  
440.000000	1.592227  
440.500000	1.604057  
441.000000	1.683158  
441.500000	1.827046  
442.000000	1.985242  
442.500000	2.139317  
443.000000	2.283913  
443.500000	2.279740  
444.000000	2.217538  
444.500000	2.168771  
445.000000	2.102945  
445.500000	1.995207  
446.000000	1.885234  
446.500000	1.775535  
447.000000	1.637612  
447.500000	1.475293  
448.000000	1.192453  
448.500000	0.900007  
449.000000	0.752066  
449.500000	0.696188  
450.000000	0.676649  
450.500000	0.725658  
451.000000	0.859474  
451.500000	1.060329  
452.000000	1.266212  
452.500000	1.325644  
453.000000	1.366242  
453.500000	1.434482  
454.000000	1.405472  
454.500000	1.294533  
455.000000	1.131953  
455.500000	0.994576  
456.000000	0.859010  
456.500000	0.775714  
457.000000	0.629066  
457.500000	0.505599  
458.000000	0.522817  
458.500000	0.597544  
459.000000	0.624018  
459.500000	0.669231  
460.000000	0.718705  
460.500000	0.747763  
461.000000	0.730976  
461.500000	0.663261  
462.000000	0.499309  
462.500000	0.356329  
463.000000	0.276139  
463.500000	0.189576  
464.000000	0.129436  
464.500000	0.111895  
465.000000	0.175405  
465.500000	0.203630  
466.000000	0.224294  
466.500000	0.115245  
467.000000	-0.105162 
467.500000	-0.284321 
468.000000	-0.432581 
468.500000	-0.498334 
469.000000	-0.515181 
469.500000	-0.442412 
470.000000	-0.289128 
470.500000	-0.082318 
471.000000	0.105729  
471.500000	0.258085  
472.000000	0.389319  
472.500000	0.504183  
473.000000	0.645301  
473.500000	0.777859  
474.000000	0.812053  
474.500000	0.788107  
475.000000	0.712510  
475.500000	0.568683  
476.000000	0.409074  
476.500000	0.245988  
477.000000	0.060018  
477.500000	-0.085216 
478.000000	-0.082340 
478.500000	-0.009808 
479.000000	0.070054  
479.500000	0.089324  
480.000000	0.078552  
480.500000	0.101163  
481.000000	0.113948  
481.500000	0.083390  
482.000000	-0.024860 
482.500000	-0.169682 
483.000000	-0.242718 
483.500000	-0.292892 
484.000000	-0.389436 
484.500000	-0.471277 
485.000000	-0.536379 
485.500000	-0.580336 
486.000000	-0.589418 
486.500000	-0.596584 
487.000000	-0.635571 
487.500000	-0.644848 
488.000000	-0.614043 
488.500000	-0.579751 
489.000000	-0.546164 
489.500000	-0.487817 
490.000000	-0.427912 
490.500000	-0.410398 
491.000000	-0.384120 
491.500000	-0.373352 
492.000000	-0.408611 
492.500000	-0.511712 
493.000000	-0.553449 
493.500000	-0.613297 
494.000000	-0.633072 
494.500000	-0.578937 
495.000000	-0.519907 
495.500000	-0.402407 
496.000000	-0.232535 
496.500000	-0.086770 
497.000000	-0.079082 
497.500000	-0.080909 
498.000000	-0.179662 
498.500000	-0.323824 
499.000000	-0.448521 
499.500000	-0.561158 
500.000000	-0.569120 
500.500000	-0.525695 
501.000000	-0.409349 
501.500000	-0.362926 
502.000000	-0.336306 
502.500000	-0.364260 
503.000000	-0.404094 
503.500000	-0.463249 
504.000000	-0.546163 
504.500000	-0.575236 
505.000000	-0.625694 
505.500000	-0.607058 
506.000000	-0.557448 
506.500000	-0.505023 
507.000000	-0.485906 
507.500000	-0.460782 
508.000000	-0.421853 
508.500000	-0.399742 
509.000000	-0.362286 
509.500000	-0.369290 
510.000000	-0.385534 
510.500000	-0.389204 
511.000000	-0.362673 
511.500000	-0.351256 
512.000000	-0.356116 
512.500000	-0.297443 
513.000000	-0.260752 
513.500000	-0.250432 
514.000000	-0.264057 
514.500000	-0.356350 
515.000000	-0.475700 
515.500000	-0.572251 
516.000000	-0.622348 
516.500000	-0.662803 
517.000000	-0.663934 
517.500000	-0.670558 
518.000000	-0.628823 
518.500000	-0.541057 
519.000000	-0.503693 
519.500000	-0.493306 
520.000000	-0.473544 
520.500000	-0.427344 
521.000000	-0.382722 
521.500000	-0.356307 
522.000000	-0.383178 
522.500000	-0.365011 
523.000000	-0.337653 
523.500000	-0.352206 
524.000000	-0.368681 
524.500000	-0.394999 
525.000000	-0.380158 
525.500000	-0.350248 
526.000000	-0.360347 
526.500000	-0.438724 
527.000000	-0.494952 
527.500000	-0.594297 
528.000000	-0.691546 
528.500000	-0.764113 
529.000000	-0.776442 
529.500000	-0.676407 
530.000000	-0.500750 
530.500000	-0.331933 
531.000000	-0.175738 
531.500000	-0.046238 
532.000000	0.001482  
532.500000	-0.020606 
533.000000	-0.116580 
533.500000	-0.218961 
534.000000	-0.296223 
534.500000	-0.332981 
535.000000	-0.380496 
535.500000	-0.419826 
536.000000	-0.420143 
536.500000	-0.381629 
537.000000	-0.319072 
537.500000	-0.281773 
538.000000	-0.248929 
538.500000	-0.221555 
539.000000	-0.201295 
539.500000	-0.220970 
540.000000	-0.308166 
540.500000	-0.405800 
541.000000	-0.472340 
541.500000	-0.484994 
542.000000	-0.446363 
542.500000	-0.417026 
543.000000	-0.378350 
543.500000	-0.376649 
544.000000	-0.404700 
544.500000	-0.523256 
545.000000	-0.622143 
545.500000	-0.720083 
546.000000	-0.753646 
546.500000	-0.702493 
547.000000	-0.647778 
547.500000	-0.570603 
548.000000	-0.492447 
548.500000	-0.427489 
549.000000	-0.403366 
549.500000	-0.358466 
550.000000	-0.355526 
550.500000	-0.365929 
551.000000	-0.392236 
551.500000	-0.489473 
552.000000	-0.588177 
552.500000	-0.667498 
553.000000	-0.743969 
553.500000	-0.808685 
554.000000	-0.817043 
554.500000	-0.814197 
555.000000	-0.809435 
555.500000	-0.785774 
556.000000	-0.774835 
556.500000	-0.790990 
557.000000	-0.762711 
557.500000	-0.688459 
558.000000	-0.564520 
558.500000	-0.374615 
559.000000	-0.240818 
559.500000	-0.196764 
560.000000	-0.217671 
560.500000	-0.308061 
561.000000	-0.564743 
561.500000	-0.898807 
562.000000	-1.221945 
562.500000	-1.488572 
563.000000	-1.641907 
563.500000	-1.718588 
564.000000	-1.744588 
564.500000	-1.684588 
565.000000	-1.445687 
565.500000	-1.210498 
566.000000	-0.982470 
566.500000	-0.782499 
567.000000	-0.616365 
567.500000	-0.470327 
568.000000	-0.395870 
568.500000	-0.431382 
569.000000	-0.553089 
569.500000	-0.607077 
570.000000	-0.640652 
570.500000	-0.571128 
571.000000	-0.468884 
571.500000	-0.330452 
572.000000	-0.195826 
572.500000	-0.094283 
573.000000	-0.119803 
573.500000	-0.265402 
574.000000	-0.458220 
574.500000	-0.700508 
575.000000	-0.808251 
575.500000	-0.777909 
576.000000	-0.645544 
576.500000	-0.446278 
577.000000	-0.233165 
577.500000	-0.082822 
578.000000	-0.004613 
578.500000	-0.049756 
579.000000	-0.234725 
579.500000	-0.471520 
580.000000	-0.663238 
580.500000	-0.805231 
581.000000	-0.918126 
581.500000	-0.973526 
582.000000	-1.010155 
582.500000	-1.010375 
583.000000	-1.009286 
583.500000	-0.996505 
584.000000	-0.970295 
584.500000	-0.861973 
585.000000	-0.769239 
585.500000	-0.682660 
586.000000	-0.573510 
586.500000	-0.501501 
587.000000	-0.466924 
587.500000	-0.470412 
588.000000	-0.471519 
588.500000	-0.465540 
589.000000	-0.456240 
589.500000	-0.534903 
590.000000	-0.619821 
590.500000	-0.628999 
591.000000	-0.627319 
591.500000	-0.699863 
592.000000	-0.763617 
592.500000	-0.774205 
593.000000	-0.728679 
593.500000	-0.634178 
594.000000	-0.599314 
594.500000	-0.567165 
595.000000	-0.469415 
595.500000	-0.427510 
596.000000	-0.505064 
596.500000	-0.674411 
597.000000	-0.842978 
597.500000	-0.997052 
598.000000	-1.135549 
598.500000	-1.280043 
599.000000	-1.382434 
599.500000	-1.361999 
600.000000	-1.312175 
600.500000	-1.281929 
601.000000	-1.273519 
601.500000	-1.255330 
602.000000	-1.238282 
602.500000	-1.210704 
603.000000	-1.153563 
603.500000	-1.041519 
604.000000	-0.824695 
604.500000	-0.607592 
605.000000	-0.445843 
605.500000	-0.335576 
606.000000	-0.265885 
606.500000	-0.251545 
607.000000	-0.291513 
607.500000	-0.367778 
608.000000	-0.441463 
608.500000	-0.475735 
609.000000	-0.493360 
609.500000	-0.551124 
610.000000	-0.627691 
610.500000	-0.692917 
611.000000	-0.779015 
611.500000	-0.854092 
612.000000	-0.923822 
612.500000	-0.938695 
613.000000	-0.872534 
613.500000	-0.794446 
614.000000	-0.708377 
614.500000	-0.640864 
615.000000	-0.582793 
615.500000	-0.581672 
616.000000	-0.579129 
616.500000	-0.631622 
617.000000	-0.649699 
617.500000	-0.640405 
618.000000	-0.665308 
618.500000	-0.702761 
619.000000	-0.686024 
619.500000	-0.680639 
620.000000	-0.675629 
620.500000	-0.627116 
621.000000	-0.585295 
621.500000	-0.479900 
622.000000	-0.303022 
622.500000	-0.156125 
623.000000	-0.035141 
623.500000	0.113039  
624.000000	0.157059  
624.500000	0.123770  
625.000000	0.062892  
625.500000	-0.030062 
626.000000	-0.127949 
626.500000	-0.202346 
627.000000	-0.290043 
627.500000	-0.354329 
628.000000	-0.356891 
628.500000	-0.409038 
629.000000	-0.491797 
629.500000	-0.554411 
630.000000	-0.573878 
630.500000	-0.567050 
631.000000	-0.514752 
631.500000	-0.463676 
632.000000	-0.385835 
632.500000	-0.280195 
633.000000	-0.202730 
633.500000	-0.221098 
634.000000	-0.307935 
634.500000	-0.394610 
635.000000	-0.487407 
635.500000	-0.620154 
636.000000	-0.771076 
636.500000	-0.912927 
637.000000	-1.002726 
637.500000	-1.033492 
638.000000	-1.058786 
638.500000	-1.058663 
639.000000	-0.981602 
639.500000	-0.873870 
640.000000	-0.800189 
640.500000	-0.751018 
641.000000	-0.735810 
641.500000	-0.725869 
642.000000	-0.698824 
642.500000	-0.691663 
643.000000	-0.722134 
643.500000	-0.733637 
644.000000	-0.710353 
644.500000	-0.726246 
645.000000	-0.769856 
645.500000	-0.805858 
646.000000	-0.823851 
646.500000	-0.848026 
647.000000	-0.914460 
647.500000	-0.972607 
648.000000	-1.037231 
648.500000	-1.096462 
649.000000	-1.179944 
649.500000	-1.274323 
650.000000	-1.330753 
650.500000	-1.318884 
651.000000	-1.239015 
651.500000	-1.174910 
652.000000	-1.085716 
652.500000	-0.987709 
653.000000	-0.904776 
653.500000	-0.874963 
654.000000	-0.896743 
654.500000	-0.924995 
655.000000	-0.938089 
655.500000	-0.890552 
656.000000	-0.852178 
656.500000	-0.785364 
657.000000	-0.675510 
657.500000	-0.519420 
658.000000	-0.402750 
658.500000	-0.350198 
659.000000	-0.311763 
659.500000	-0.371821 
660.000000	-0.499669 
660.500000	-0.620064 
661.000000	-0.745158 
661.500000	-0.876484 
662.000000	-0.927415 
662.500000	-0.924649 
663.000000	-0.906693 
663.500000	-0.816189 
664.000000	-0.757418 
664.500000	-0.752794 
665.000000	-0.765283 
665.500000	-0.770485 
666.000000	-0.794109 
666.500000	-0.796553 
667.000000	-0.732972 
667.500000	-0.652585 
668.000000	-0.505733 
668.500000	-0.369524 
669.000000	-0.220193 
669.500000	-0.091362 
670.000000	0.004891  
670.500000	0.039268  
671.000000	0.026152  
671.500000	0.052288  
672.000000	0.107816  
672.500000	0.222140  
673.000000	0.376599  
673.500000	0.600487  
674.000000	0.851801  
674.500000	1.001449  
675.000000	1.103689  
675.500000	1.210355  
676.000000	1.315909  
676.500000	1.391122  
677.000000	1.465247  
677.500000	1.587381  
678.000000	1.763531  
678.500000	2.082162  
679.000000	2.356994  
679.500000	2.578147  
680.000000	2.817716  
680.500000	3.006204  
681.000000	3.111035  
681.500000	3.209189  
682.000000	3.309518  
682.500000	3.429126  
683.000000	3.670694  
683.500000	3.875094  
684.000000	4.051606  
684.500000	4.310262  
685.000000	4.479497  
685.500000	4.553980  
686.000000	4.577922  
686.500000	4.552322  
687.000000	4.536691  
687.500000	4.599186  
688.000000	4.671024  
688.500000	4.744103  
689.000000	4.961486  
689.500000	5.182683  
690.000000	5.400614  
690.500000	5.595112  
691.000000	5.811192  
691.500000	6.044215  
692.000000	6.400078  
692.500000	6.772439  
693.000000	7.070784  
693.500000	7.342496  
694.000000	7.529986  
694.500000	7.721695  
695.000000	7.842461  
695.500000	7.945518  
696.000000	7.932932  
696.500000	8.040107  
697.000000	8.263851  
697.500000	8.561807  
698.000000	8.877770  
698.500000	9.069183  
699.000000	9.275739  
699.500000	9.493654  
700.000000	9.719525  
700.500000	9.758352  
701.000000	9.746796  
701.500000	9.683807  
702.000000	9.627914  
702.500000	9.681864  
703.000000	9.613263  
703.500000	9.510677  
704.000000	9.462547  
704.500000	9.568737  
705.000000	9.744423  
705.500000	9.937918  
706.000000	10.093413 
706.500000	10.179912 
707.000000	10.442299 
707.500000	10.642897 
708.000000	10.736781 
708.500000	10.751344 
709.000000	10.821923 
709.500000	10.896440 
710.000000	10.934891 
710.500000	10.895826 
711.000000	10.761507 
711.500000	10.732957 
712.000000	10.842017 
712.500000	10.923656 
713.000000	10.981474 
713.500000	11.099292 
714.000000	11.196258 
714.500000	11.296839 
715.000000	11.311965 
715.500000	11.283518 
716.000000	11.273858 
716.500000	11.314584 
717.000000	11.347695 
717.500000	11.364640 
718.000000	11.371773 
718.500000	11.295456 
719.000000	11.182227 
719.500000	10.971899 
720.000000	10.764778 
720.500000	10.602141 
721.000000	10.604999 
721.500000	10.804891 
722.000000	11.143969 
722.500000	11.580307 
723.000000	12.066605 
723.500000	12.513567 
724.000000	12.756359 
724.500000	12.794617 
725.000000	12.616205 
725.500000	12.319872 
726.000000	12.011797 
726.500000	11.720316 
727.000000	11.494218 
727.500000	11.457123 
728.000000	11.595505 
728.500000	11.799495 
729.000000	11.967820 
729.500000	11.898232 
730.000000	11.748844 
730.500000	11.459816 
731.000000	11.135465 
731.500000	10.815146 
732.000000	10.568972 
732.500000	10.505153 
733.000000	10.571540 
733.500000	10.787688 
734.000000	10.941351 
734.500000	11.100583 
735.000000	11.063286 
735.500000	10.943563 
736.000000	10.744296 
736.500000	10.483631 
737.000000	10.215143 
737.500000	10.002470 
738.000000	9.941419  
738.500000	9.985779  
739.000000	10.167003 
739.500000	10.272148 
740.000000	10.305698 
740.500000	10.286538 
741.000000	10.163291 
741.500000	9.887762  
742.000000	9.555387  
742.500000	9.292800  
743.000000	9.109620  
743.500000	9.082362  
744.000000	9.125763  
744.500000	9.221716  
745.000000	9.424080  
745.500000	9.635609  
746.000000	9.645510  
746.500000	9.542197  
747.000000	9.380160  
747.500000	9.184851  
748.000000	8.934611  
748.500000	8.603348  
749.000000	8.156409  
749.500000	7.822414  
750.000000	7.648098  
750.500000	7.558116  
751.000000	7.561125  
751.500000	7.644788  
752.000000	7.819236  
752.500000	7.995075  
753.000000	8.168512  
753.500000	8.221086  
754.000000	8.254223  
754.500000	8.260471  
755.000000	8.301795  
755.500000	8.317792  
756.000000	8.295622  
756.500000	8.255249  
757.000000	8.151396  
757.500000	8.045930  
758.000000	7.920674  
758.500000	7.825469  
759.000000	7.699509  
759.500000	7.638500  
760.000000	7.644758  
760.500000	7.707330  
761.000000	7.698580  
761.500000	7.614741  
762.000000	7.426087  
762.500000	7.153482  
763.000000	6.868080  
763.500000	6.551366  
764.000000	6.234041  
764.500000	5.985462  
765.000000	5.845858  
765.500000	5.716854  
766.000000	5.688964  
766.500000	5.620347  
767.000000	5.471196  
767.500000	5.249483  
768.000000	5.043675  
768.500000	4.771146  
769.000000	4.572418  
769.500000	4.457875  
770.000000	4.389560  
770.500000	4.570310  
771.000000	4.894075  
771.500000	5.213502  
772.000000	5.382884  
772.500000	5.525127  
773.000000	5.517918  
773.500000	5.413897  
774.000000	5.220939  
774.500000	4.943161  
775.000000	4.711249  
775.500000	4.601499  
776.000000	4.520822  
776.500000	4.338666  
777.000000	4.200412  
777.500000	4.048373  
778.000000	3.957647  
778.500000	3.883546  
779.000000	3.841250  
779.500000	3.742653  
780.000000	3.693605  
780.500000	3.677603  
781.000000	3.552810  
781.500000	3.356271  
782.000000	3.159487  
782.500000	2.995292  
783.000000	2.801058  
783.500000	2.675934  
784.000000	2.564056  
784.500000	2.532919  
785.000000	2.644387  
785.500000	2.735377  
786.000000	2.728766  
786.500000	2.721644  
787.000000	2.780719  
787.500000	2.812154  
788.000000	2.841741  
788.500000	2.845624  
789.000000	2.832624  
789.500000	2.946462  
790.000000	3.084492  
790.500000	3.110972  
791.000000	3.127080  
791.500000	3.144790  
792.000000	3.073761  
792.500000	2.916866  
793.000000	2.618689  
793.500000	2.233305  
794.000000	1.902252  
794.500000	1.713583  
795.000000	1.564069  
795.500000	1.529060  
796.000000	1.574495  
796.500000	1.666636  
797.000000	1.798986  
797.500000	1.812536  
798.000000	1.710559  
798.500000	1.558816  
799.000000	1.441219  
799.500000	1.247913  
800.000000	1.156258  
800.500000	1.091567  
801.000000	1.151117  
801.500000	1.322126  
802.000000	1.430981  
802.500000	1.414625  
803.000000	1.293759  
803.500000	1.141119  
804.000000	0.843636  
804.500000	0.611860  
805.000000	0.393687  
805.500000	0.347117  
806.000000	0.478458  
806.500000	0.690244  
807.000000	0.874775  
807.500000	1.069685  
808.000000	1.323902  
808.500000	1.459504  
809.000000	1.562086  
809.500000	1.534258  
810.000000	1.491102  
810.500000	1.462954  
811.000000	1.441340  
811.500000	1.358655  
812.000000	1.204823  
812.500000	1.108049  
813.000000	1.000629  
813.500000	0.873670  
814.000000	0.708235  
814.500000	0.589727  
815.000000	0.539854  
815.500000	0.515370  
816.000000	0.497570  
816.500000	0.455212  
817.000000	0.464381  
817.500000	0.544675  
818.000000	0.617566  
818.500000	0.631057  
819.000000	0.633969  
819.500000	0.583952  
820.000000	0.447790  
820.500000	0.283049  
821.000000	0.085520  
821.500000	-0.127496 
822.000000	-0.263208 
822.500000	-0.348439 
823.000000	-0.434451 
823.500000	-0.450058 
824.000000	-0.376060 
824.500000	-0.302334 
825.000000	-0.185653 
825.500000	-0.026068 
826.000000	0.060298  
826.500000	0.134014  
827.000000	0.215398  
827.500000	0.210640  
828.000000	0.140464  
828.500000	0.089412  
829.000000	0.024612  
829.500000	0.005672  
830.000000	0.021765  
830.500000	0.039252  
831.000000	0.037130  
831.500000	0.070697  
832.000000	0.086171  
832.500000	0.003997  
833.000000	-0.106006 
833.500000	-0.252489 
834.000000	-0.345728 
834.500000	-0.413262 
835.000000	-0.405917 
835.500000	-0.401902 
836.000000	-0.397687 
836.500000	-0.365952 
837.000000	-0.345531 
837.500000	-0.348094 
838.000000	-0.389279 
838.500000	-0.398654 
839.000000	-0.424332 
839.500000	-0.378270 
840.000000	-0.339555 
840.500000	-0.342861 
841.000000	-0.342581 
841.500000	-0.328458 
842.000000	-0.295876 
842.500000	-0.280547 
843.000000	-0.282176 
843.500000	-0.354007 
844.000000	-0.429386 
844.500000	-0.503744 
845.000000	-0.618099 
845.500000	-0.750103 
846.000000	-0.853723 
846.500000	-0.897012 
847.000000	-0.852643 
847.500000	-0.701807 
848.000000	-0.559870 
848.500000	-0.420188 
849.000000	-0.269484 
849.500000	-0.191786 
850.000000	-0.201497 
850.500000	-0.261114 
851.000000	-0.423417 
851.500000	-0.566230 
852.000000	-0.607213 
852.500000	-0.630137 
853.000000	-0.613313 
853.500000	-0.528573 
854.000000	-0.462652 
854.500000	-0.401700 
855.000000	-0.369546 
855.500000	-0.471495 
856.000000	-0.666048 
856.500000	-0.861845 
857.000000	-1.051225 
857.500000	-1.217881 
858.000000	-1.326248 
858.500000	-1.445711 
859.000000	-1.450521 
859.500000	-1.363799 
860.000000	-1.233753 
860.500000	-1.087075 
861.000000	-0.910127 
861.500000	-0.696899 
862.000000	-0.489686 
862.500000	-0.303616 
863.000000	-0.242466 
863.500000	-0.211282 
864.000000	-0.231930 
864.500000	-0.280066 
865.000000	-0.379083 
865.500000	-0.501563 
866.000000	-0.587762 
866.500000	-0.649024 
867.000000	-0.693848 
867.500000	-0.744163 
868.000000	-0.777908 
868.500000	-0.761425 
869.000000	-0.706563 
869.500000	-0.607841 
870.000000	-0.509106 
870.500000	-0.441137 
871.000000	-0.409358 
871.500000	-0.429475 
872.000000	-0.474865 
872.500000	-0.556378 
873.000000	-0.634893 
873.500000	-0.702108 
874.000000	-0.741762 
874.500000	-0.784874 
875.000000	-0.793190 
875.500000	-0.769037 
876.000000	-0.762361 
876.500000	-0.729883 
877.000000	-0.673277 
877.500000	-0.604743 
878.000000	-0.561114 
878.500000	-0.546123 
879.000000	-0.597169 
879.500000	-0.638408 
880.000000	-0.684337 
880.500000	-0.784956 
881.000000	-0.881813 
881.500000	-0.935796 
882.000000	-0.946779 
882.500000	-0.958146 
883.000000	-1.005635 
883.500000	-1.110787 
884.000000	-1.194295 
884.500000	-1.220851 
885.000000	-1.232469 
885.500000	-1.166983 
886.000000	-1.024292 
886.500000	-0.816246 
887.000000	-0.634650 
887.500000	-0.510098 
888.000000	-0.438415 
888.500000	-0.423324 
889.000000	-0.491043 
889.500000	-0.619509 
890.000000	-0.698402 
890.500000	-0.737653 
891.000000	-0.755429 
891.500000	-0.760721 
892.000000	-0.763244 
892.500000	-0.757018 
893.000000	-0.753020 
893.500000	-0.829056 
894.000000	-0.966797 
894.500000	-1.070211 

