PE FL                   SPECTRUM    ASCII       PEDS        1.60        
  -1
PP824E~1
23/10/10
15:01:16.00
23/10/10
15:01:16.00


444.500000
1









LS55
15.00
5.00
5.00
SCAN
1
20
100
100
0
500
0
2
0
1
7
ON
500 450 
1 0 0
#HDR
-1
-1
#GR
NM

0.00002384185791015625
0.0
250.000000
0.500000
390
8
2.684877
-5.084282
#DATA
250.000000	-5.000000 
250.500000	-4.081758 
251.000000	-3.194158 
251.500000	-2.465458 
252.000000	-1.767549 
252.500000	-1.161908 
253.000000	-0.987280 
253.500000	-1.278110 
254.000000	-1.721632 
254.500000	-2.304031 
255.000000	-3.174932 
255.500000	-3.974775 
256.000000	-4.684176 
256.500000	-5.084282 
257.000000	-4.893230 
257.500000	-4.497665 
258.000000	-3.909387 
258.500000	-3.058953 
259.000000	-2.068946 
259.500000	-1.223715 
260.000000	-0.595529 
260.500000	-0.388695 
261.000000	-0.695196 
261.500000	-1.171907 
262.000000	-1.977691 
262.500000	-2.726105 
263.000000	-3.401987 
263.500000	-3.811844 
264.000000	-3.789022 
264.500000	-3.477004 
265.000000	-3.130859 
265.500000	-2.885129 
266.000000	-2.512908 
266.500000	-2.303161 
267.000000	-2.085418 
267.500000	-2.040818 
268.000000	-1.964220 
268.500000	-1.897750 
269.000000	-1.961461 
269.500000	-2.077122 
270.000000	-2.325336 
270.500000	-2.531111 
271.000000	-2.851303 
271.500000	-3.254389 
272.000000	-3.454148 
272.500000	-3.305193 
273.000000	-3.202153 
273.500000	-2.984541 
274.000000	-2.438216 
274.500000	-1.706857 
275.000000	-0.618350 
275.500000	0.459708  
276.000000	1.093625  
276.500000	1.764211  
277.000000	2.375140  
277.500000	2.677074  
278.000000	2.517629  
278.500000	2.249817  
279.000000	1.915413  
279.500000	1.818822  
280.000000	1.890437  
280.500000	1.578502  
281.000000	1.311132  
281.500000	0.860579  
282.000000	0.255583  
282.500000	-0.670494 
283.000000	-1.672396 
283.500000	-2.664661 
284.000000	-3.384898 
284.500000	-3.783258 
285.000000	-3.943379 
285.500000	-3.702382 
286.000000	-3.486122 
286.500000	-3.177198 
287.000000	-3.310513 
287.500000	-3.380892 
288.000000	-3.282675 
288.500000	-3.019947 
289.000000	-2.509838 
289.500000	-1.819594 
290.000000	-0.821613 
290.500000	0.185161  
291.000000	1.151274  
291.500000	1.426993  
292.000000	1.268439  
292.500000	0.878992  
293.000000	0.316864  
293.500000	-0.099549 
294.000000	-0.367431 
294.500000	0.026760  
295.000000	0.671730  
295.500000	1.602752  
296.000000	2.266197  
296.500000	2.651031  
297.000000	2.684877  
297.500000	1.916102  
298.000000	1.078437  
298.500000	-0.006632 
299.000000	-0.642292 
299.500000	-1.376386 
300.000000	-1.834853 
300.500000	-1.770091 
301.000000	-1.099459 
301.500000	-0.156314 
302.000000	0.423222  
302.500000	1.029672  
303.000000	1.359061  
303.500000	1.781021  
304.000000	1.728291  
304.500000	1.262813  
305.000000	0.544485  
305.500000	0.210779  
306.000000	0.134897  
306.500000	-0.097673 
307.000000	-0.054012 
307.500000	0.094558  
308.000000	0.741596  
308.500000	1.444041  
309.000000	1.931601  
309.500000	1.839796  
310.000000	1.768263  
310.500000	1.607115  
311.000000	1.154515  
311.500000	0.770110  
312.000000	0.305300  
312.500000	0.140418  
313.000000	0.404542  
313.500000	0.979783  
314.000000	1.193316  
314.500000	1.319225  
315.000000	1.385010  
315.500000	1.059928  
316.000000	0.541003  
316.500000	-0.255660 
317.000000	-1.001997 
317.500000	-1.448480 
318.000000	-1.504012 
318.500000	-1.524012 
319.000000	-1.471691 
319.500000	-1.168649 
320.000000	-0.848028 
320.500000	-0.529089 
321.000000	-0.226223 
321.500000	-0.026062 
322.000000	0.199652  
322.500000	0.424168  
323.000000	0.595837  
323.500000	0.613321  
324.000000	0.663547  
324.500000	0.701907  
325.000000	0.640654  
325.500000	0.665636  
326.000000	0.755862  
326.500000	0.907446  
327.000000	1.081411  
327.500000	1.284792  
328.000000	1.465381  
328.500000	1.589073  
329.000000	1.730850  
329.500000	1.685723  
330.000000	1.668673  
330.500000	1.648144  
331.000000	1.604337  
331.500000	1.613722  
332.000000	1.649515  
332.500000	1.859895  
333.000000	2.021469  
333.500000	2.190712  
334.000000	2.233603  
334.500000	2.159430  
335.000000	2.044065  
335.500000	1.780555  
336.000000	1.595115  
336.500000	1.418161  
337.000000	1.519613  
337.500000	1.678058  
338.000000	1.786161  
338.500000	1.737269  
339.000000	1.496351  
339.500000	1.223744  
340.000000	0.826371  
340.500000	0.534705  
341.000000	0.371459  
341.500000	0.527991  
342.000000	0.966981  
342.500000	1.529205  
343.000000	1.976914  
343.500000	2.098718  
344.000000	2.078956  
344.500000	1.774922  
345.000000	1.314057  
345.500000	0.802501  
346.000000	0.442710  
346.500000	0.284190  
347.000000	0.361675  
347.500000	0.541109  
348.000000	0.655334  
348.500000	0.787839  
349.000000	0.863394  
349.500000	0.857222  
350.000000	0.717593  
350.500000	0.547824  
351.000000	0.397933  
351.500000	0.377013  
352.000000	0.527903  
352.500000	0.667001  
353.000000	0.801279  
353.500000	1.019135  
354.000000	1.329850  
354.500000	1.506164  
355.000000	1.555782  
355.500000	1.538515  
356.000000	1.492081  
356.500000	1.476206  
357.000000	1.420621  
357.500000	1.328756  
358.000000	1.293281  
358.500000	1.435582  
359.000000	1.573835  
359.500000	1.677178  
360.000000	1.671755  
360.500000	1.660954  
361.000000	1.687428  
361.500000	1.659032  
362.000000	1.652879  
362.500000	1.664619  
363.000000	1.852508  
363.500000	2.060812  
364.000000	2.250790  
364.500000	2.296471  
365.000000	2.177842  
365.500000	1.976406  
366.000000	1.603640  
366.500000	1.203205  
367.000000	0.827479  
367.500000	0.559416  
368.000000	0.414938  
368.500000	0.416242  
369.000000	0.517098  
369.500000	0.624540  
370.000000	0.772150  
370.500000	0.883567  
371.000000	0.992871  
371.500000	1.138810  
372.000000	1.246595  
372.500000	1.307642  
373.000000	1.299589  
373.500000	1.268093  
374.000000	1.189854  
374.500000	1.045825  
375.000000	0.841026  
375.500000	0.638680  
376.000000	0.590930  
376.500000	0.644410  
377.000000	0.728476  
377.500000	0.900754  
378.000000	1.110228  
378.500000	1.350047  
379.000000	1.565438  
379.500000	1.693028  
380.000000	1.716179  
380.500000	1.686064  
381.000000	1.609968  
381.500000	1.491195  
382.000000	1.456367  
382.500000	1.373753  
383.000000	1.275482  
383.500000	1.228184  
384.000000	1.192875  
384.500000	1.198976  
385.000000	1.175490  
385.500000	1.079356  
386.000000	0.981926  
386.500000	0.994156  
387.000000	1.000416  
387.500000	0.956650  
388.000000	0.948714  
388.500000	0.984231  
389.000000	1.158885  
389.500000	1.365664  
390.000000	1.499459  
390.500000	1.609501  
391.000000	1.774025  
391.500000	1.906162  
392.000000	1.931027  
392.500000	1.858563  
393.000000	1.732255  
393.500000	1.655840  
394.000000	1.599588  
394.500000	1.519329  
395.000000	1.426203  
395.500000	1.356484  
396.000000	1.293469  
396.500000	1.223983  
397.000000	1.162071  
397.500000	1.089266  
398.000000	1.068749  
398.500000	1.080197  
399.000000	1.085934  
399.500000	1.112420  
400.000000	1.136176  
400.500000	1.170729  
401.000000	1.183272  
401.500000	1.225329  
402.000000	1.252069  
402.500000	1.278407  
403.000000	1.272738  
403.500000	1.221626  
404.000000	1.174125  
404.500000	1.102484  
405.000000	1.065462  
405.500000	1.023981  
406.000000	1.027964  
406.500000	1.081783  
407.000000	1.156273  
407.500000	1.229954  
408.000000	1.242657  
408.500000	1.232959  
409.000000	1.177939  
409.500000	1.113226  
410.000000	1.040824  
410.500000	0.959870  
411.000000	0.951757  
411.500000	1.013293  
412.000000	1.118512  
412.500000	1.205094  
413.000000	1.256142  
413.500000	1.284980  
414.000000	1.243699  
414.500000	1.183326  
415.000000	1.069495  
415.500000	0.944704  
416.000000	0.885296  
416.500000	0.892037  
417.000000	0.927740  
417.500000	0.968197  
418.000000	1.028922  
418.500000	1.038393  
419.000000	1.047188  
419.500000	0.996614  
420.000000	0.865527  
420.500000	0.731178  
421.000000	0.625641  
421.500000	0.553803  
422.000000	0.514876  
422.500000	0.539004  
423.000000	0.572780  
423.500000	0.644911  
424.000000	0.730010  
424.500000	0.777730  
425.000000	0.779288  
425.500000	0.761434  
426.000000	0.731256  
426.500000	0.686627  
427.000000	0.677297  
427.500000	0.695396  
428.000000	0.747768  
428.500000	0.848368  
429.000000	0.969613  
429.500000	1.057419  
430.000000	1.108628  
430.500000	1.127575  
431.000000	1.110640  
431.500000	1.084765  
432.000000	1.056903  
432.500000	1.008074  
433.000000	0.989870  
433.500000	1.022269  
434.000000	1.048252  
434.500000	1.060823  
435.000000	1.047800  
435.500000	1.032640  
436.000000	1.012638  
436.500000	0.997453  
437.000000	0.961026  
437.500000	0.948081  
438.000000	0.974476  
438.500000	1.000000  
439.000000	1.030408  
439.500000	1.037651  
440.000000	1.022036  
440.500000	0.986452  
441.000000	0.952695  
441.500000	0.902052  
442.000000	0.846815  
442.500000	0.810108  
443.000000	0.779451  
443.500000	0.784958  
444.000000	0.822460  
444.500000	0.854368  

