PE FL                   SPECTRUM    ASCII       PEDS        1.60        
  -1
PP827E~1
23/10/10
15:03:18.00
23/10/10
15:03:18.00


444.500000
1









LS55
30.00
5.00
5.00
SCAN
1
20
100
100
0
500
0
2
0
1
7
ON
500 450 
1 0 0
#HDR
-1
-1
#GR
NM

0.00002384185791015625
0.0
250.000000
0.500000
390
8
11.214000
-4.753941
#DATA
250.000000	11.214000 
250.500000	6.749834  
251.000000	3.376976  
251.500000	0.361779  
252.000000	-1.341536 
252.500000	-1.960307 
253.000000	-1.928687 
253.500000	-1.740504 
254.000000	-0.945970 
254.500000	-0.457142 
255.000000	-0.794099 
255.500000	-0.911496 
256.000000	-1.525590 
256.500000	-2.032427 
257.000000	-2.676386 
257.500000	-3.356120 
258.000000	-4.289138 
258.500000	-4.753941 
259.000000	-4.712261 
259.500000	-4.747225 
260.000000	-4.134777 
260.500000	-3.298829 
261.000000	-1.904397 
261.500000	-0.483727 
262.000000	0.607971  
262.500000	1.248007  
263.000000	1.674223  
263.500000	1.664945  
264.000000	1.051928  
264.500000	0.226709  
265.000000	-0.985787 
265.500000	-2.102382 
266.000000	-2.588187 
266.500000	-3.009397 
267.000000	-2.951538 
267.500000	-2.136677 
268.000000	-0.924830 
268.500000	0.171370  
269.000000	1.260780  
269.500000	1.972228  
270.000000	2.078791  
270.500000	1.982068  
271.000000	1.209320  
271.500000	0.152382  
272.000000	-0.586710 
272.500000	-1.045260 
273.000000	-1.657803 
273.500000	-1.992905 
274.000000	-1.867315 
274.500000	-1.771401 
275.000000	-1.630942 
275.500000	-1.694172 
276.000000	-2.130000 
276.500000	-2.224125 
277.000000	-2.050731 
277.500000	-2.219460 
278.000000	-2.457494 
278.500000	-2.434217 
279.000000	-2.279724 
279.500000	-1.930935 
280.000000	-1.567308 
280.500000	-1.573231 
281.000000	-1.414992 
281.500000	-1.240945 
282.000000	-1.214236 
282.500000	-1.366468 
283.000000	-1.239791 
283.500000	-0.926137 
284.000000	-0.473263 
284.500000	0.077490  
285.000000	0.494914  
285.500000	0.894840  
286.000000	0.975860  
286.500000	1.016535  
287.000000	0.703218  
287.500000	0.484594  
288.000000	0.442375  
288.500000	0.357987  
289.000000	0.055418  
289.500000	-0.016920 
290.000000	-0.132446 
290.500000	-0.165271 
291.000000	-0.091412 
291.500000	-0.279641 
292.000000	-0.437693 
292.500000	-0.358844 
293.000000	-0.232971 
293.500000	-0.438963 
294.000000	-0.298207 
294.500000	-0.306914 
295.000000	-0.098846 
295.500000	0.344425  
296.000000	0.794945  
296.500000	1.223345  
297.000000	1.635552  
297.500000	1.843360  
298.000000	1.370267  
298.500000	0.985856  
299.000000	0.325893  
299.500000	-0.370865 
300.000000	-0.650915 
300.500000	-0.574887 
301.000000	-0.212167 
301.500000	0.757482  
302.000000	2.039262  
302.500000	3.151951  
303.000000	4.408871  
303.500000	5.649237  
304.000000	6.322161  
304.500000	6.898440  
305.000000	6.966258  
305.500000	6.494794  
306.000000	5.836561  
306.500000	5.175586  
307.000000	4.314908  
307.500000	3.479217  
308.000000	2.845430  
308.500000	2.197242  
309.000000	2.060868  
309.500000	1.926803  
310.000000	1.912661  
310.500000	1.845329  
311.000000	1.959466  
311.500000	2.231934  
312.000000	2.498928  
312.500000	2.750146  
313.000000	2.757309  
313.500000	2.903071  
314.000000	2.829766  
314.500000	2.910990  
315.000000	2.748421  
315.500000	2.584608  
316.000000	2.681742  
316.500000	3.019511  
317.000000	3.488559  
317.500000	3.733527  
318.000000	3.922903  
318.500000	3.871987  
319.000000	3.948532  
319.500000	3.721063  
320.000000	3.218937  
320.500000	2.612600  
321.000000	2.111331  
321.500000	1.916665  
322.000000	1.824167  
322.500000	1.844985  
323.000000	1.911208  
323.500000	2.166284  
324.000000	2.463685  
324.500000	2.604122  
325.000000	2.748458  
325.500000	2.836128  
326.000000	2.837507  
326.500000	2.933369  
327.000000	2.924312  
327.500000	2.916547  
328.000000	2.792807  
328.500000	2.728515  
329.000000	2.534685  
329.500000	2.582962  
330.000000	2.636152  
330.500000	2.617293  
331.000000	2.791782  
331.500000	2.751978  
332.000000	2.744083  
332.500000	2.539096  
333.000000	2.271788  
333.500000	1.779586  
334.000000	1.338232  
334.500000	0.927035  
335.000000	0.474579  
335.500000	0.185665  
336.000000	-0.057221 
336.500000	-0.213854 
337.000000	-0.445902 
337.500000	-0.579597 
338.000000	-0.500939 
338.500000	-0.260480 
339.000000	0.156258  
339.500000	0.509110  
340.000000	0.803857  
340.500000	1.072419  
341.000000	1.241250  
341.500000	1.182058  
342.000000	0.899099  
342.500000	0.537750  
343.000000	0.175659  
343.500000	-0.006793 
344.000000	-0.168718 
344.500000	-0.310710 
345.000000	-0.308163 
345.500000	-0.161967 
346.000000	0.022759  
346.500000	0.217679  
347.000000	0.284563  
347.500000	0.286731  
348.000000	0.267420  
348.500000	0.226502  
349.000000	0.128508  
349.500000	0.039693  
350.000000	-0.032893 
350.500000	0.018601  
351.000000	0.253680  
351.500000	0.460285  
352.000000	0.746434  
352.500000	0.902922  
353.000000	0.998057  
353.500000	0.946855  
354.000000	0.760888  
354.500000	0.369900  
355.000000	-0.048294 
355.500000	-0.369659 
356.000000	-0.732697 
356.500000	-0.899543 
357.000000	-0.993644 
357.500000	-0.940004 
358.000000	-0.729437 
358.500000	-0.411210 
359.000000	-0.182937 
359.500000	0.020113  
360.000000	0.200360  
360.500000	0.190130  
361.000000	0.184985  
361.500000	0.082513  
362.000000	-0.068917 
362.500000	-0.135359 
363.000000	-0.113143 
363.500000	-0.084920 
364.000000	0.028492  
364.500000	0.186937  
365.000000	0.304356  
365.500000	0.412938  
366.000000	0.482962  
366.500000	0.495977  
367.000000	0.419221  
367.500000	0.331803  
368.000000	0.240104  
368.500000	0.230365  
369.000000	0.227609  
369.500000	0.237005  
370.000000	0.211831  
370.500000	0.229547  
371.000000	0.342183  
371.500000	0.368570  
372.000000	0.370682  
372.500000	0.338190  
373.000000	0.313823  
373.500000	0.262716  
374.000000	0.275387  
374.500000	0.169314  
375.000000	0.045767  
375.500000	0.017841  
376.000000	-0.010749 
376.500000	-0.048653 
377.000000	-0.027650 
377.500000	0.097081  
378.000000	0.253561  
378.500000	0.470968  
379.000000	0.615331  
379.500000	0.736504  
380.000000	0.806958  
380.500000	0.836519  
381.000000	0.806818  
381.500000	0.712296  
382.000000	0.638705  
382.500000	0.558424  
383.000000	0.473063  
383.500000	0.408731  
384.000000	0.381875  
384.500000	0.381834  
385.000000	0.396367  
385.500000	0.460677  
386.000000	0.512363  
386.500000	0.599028  
387.000000	0.708289  
387.500000	0.777677  
388.000000	0.868286  
388.500000	0.963222  
389.000000	1.054019  
389.500000	1.076359  
390.000000	1.139378  
390.500000	1.181766  
391.000000	1.191062  
391.500000	1.136913  
392.000000	1.071936  
392.500000	0.956254  
393.000000	0.828624  
393.500000	0.690140  
394.000000	0.547544  
394.500000	0.467563  
395.000000	0.387308  
395.500000	0.355527  
396.000000	0.328367  
396.500000	0.400028  
397.000000	0.469358  
397.500000	0.551505  
398.000000	0.602315  
398.500000	0.642874  
399.000000	0.684000  
399.500000	0.640677  
400.000000	0.637843  
400.500000	0.618967  
401.000000	0.678715  
401.500000	0.764504  
402.000000	0.840600  
402.500000	0.908036  
403.000000	0.987152  
403.500000	1.041970  
404.000000	0.998526  
404.500000	0.932186  
405.000000	0.840277  
405.500000	0.756463  
406.000000	0.709531  
406.500000	0.644143  
407.000000	0.597944  
407.500000	0.589183  
408.000000	0.629504  
408.500000	0.654781  
409.000000	0.668561  
409.500000	0.665547  
410.000000	0.648691  
410.500000	0.658983  
411.000000	0.658224  
411.500000	0.655739  
412.000000	0.646749  
412.500000	0.685530  
413.000000	0.753222  
413.500000	0.840568  
414.000000	0.934933  
414.500000	0.950972  
415.000000	0.964356  
415.500000	0.944896  
416.000000	0.890738  
416.500000	0.800970  
417.000000	0.717363  
417.500000	0.626427  
418.000000	0.574016  
418.500000	0.587119  
419.000000	0.570048  
419.500000	0.602886  
420.000000	0.655070  
420.500000	0.714543  
421.000000	0.776574  
421.500000	0.814838  
422.000000	0.802322  
422.500000	0.794221  
423.000000	0.803295  
423.500000	0.756929  
424.000000	0.727966  
424.500000	0.704017  
425.000000	0.697721  
425.500000	0.732054  
426.000000	0.772297  
426.500000	0.801091  
427.000000	0.838318  
427.500000	0.866817  
428.000000	0.853708  
428.500000	0.823507  
429.000000	0.768595  
429.500000	0.712280  
430.000000	0.668605  
430.500000	0.615654  
431.000000	0.559302  
431.500000	0.531982  
432.000000	0.521004  
432.500000	0.516303  
433.000000	0.524662  
433.500000	0.544848  
434.000000	0.576489  
434.500000	0.615617  
435.000000	0.634864  
435.500000	0.638660  
436.000000	0.634480  
436.500000	0.620664  
437.000000	0.595081  
437.500000	0.563136  
438.000000	0.551825  
438.500000	0.565153  
439.000000	0.612706  
439.500000	0.678457  
440.000000	0.744715  
440.500000	0.780201  
441.000000	0.791708  
441.500000	0.775751  
442.000000	0.737489  
442.500000	0.688638  
443.000000	0.618482  
443.500000	0.577616  
444.000000	0.560116  
444.500000	0.587969  

