PE FL                   SPECTRUM    ASCII       PEDS        1.60        
  -1
PP9216~1
23/10/10
15:05:59.00
23/10/10
15:05:59.00


444.500000
1









LS55
50.00
5.00
5.00
SCAN
1
20
100
100
0
500
0
2
0
1
7
ON
500 450 
1 0 0
#HDR
-1
-1
#GR
NM

0.00002384185791015625
0.0
250.000000
0.500000
390
8
4.810537
-2.140838
#DATA
250.000000	0.000000  
250.500000	-0.728793 
251.000000	-1.169911 
251.500000	-1.223258 
252.000000	-1.653492 
252.500000	-1.675980 
253.000000	-1.608888 
253.500000	-1.066844 
254.000000	-0.377077 
254.500000	0.577997  
255.000000	1.119000  
255.500000	1.636681  
256.000000	2.135857  
256.500000	1.914396  
257.000000	1.563466  
257.500000	0.927691  
258.000000	0.001604  
258.500000	-1.174664 
259.000000	-1.766527 
259.500000	-2.113557 
260.000000	-2.140838 
260.500000	-2.061659 
261.000000	-2.060697 
261.500000	-1.700173 
262.000000	-1.142915 
262.500000	-0.737853 
263.000000	-0.759452 
263.500000	-0.646367 
264.000000	-0.337304 
264.500000	0.081879  
265.000000	-0.105808 
265.500000	-0.461023 
266.000000	-0.902730 
266.500000	-1.317476 
267.000000	-1.390918 
267.500000	-1.710462 
268.000000	-1.735722 
268.500000	-1.405333 
269.000000	-0.609234 
269.500000	0.172382  
270.000000	1.158042  
270.500000	2.073007  
271.000000	2.432420  
271.500000	2.782724  
272.000000	2.570537  
272.500000	2.152694  
273.000000	1.531568  
273.500000	0.789323  
274.000000	0.006798  
274.500000	-0.521418 
275.000000	-0.842920 
275.500000	-1.303631 
276.000000	-1.240473 
276.500000	-0.776357 
277.000000	-0.113116 
277.500000	0.714528  
278.000000	1.163655  
278.500000	1.591541  
279.000000	1.716785  
279.500000	1.937859  
280.000000	1.865726  
280.500000	1.447447  
281.000000	1.104238  
281.500000	0.742975  
282.000000	0.571123  
282.500000	0.318414  
283.000000	0.312638  
283.500000	0.387325  
284.000000	0.913552  
284.500000	1.602720  
285.000000	1.984421  
285.500000	2.137114  
286.000000	2.150916  
286.500000	2.073202  
287.000000	1.540331  
287.500000	0.780555  
288.000000	0.097120  
288.500000	-0.120286 
289.000000	0.226942  
289.500000	0.647466  
290.000000	1.211350  
290.500000	1.742842  
291.000000	2.042911  
291.500000	2.094660  
292.000000	1.835699  
292.500000	1.724863  
293.000000	1.761203  
293.500000	2.024840  
294.000000	2.230592  
294.500000	2.712462  
295.000000	2.960452  
295.500000	2.994843  
296.000000	2.905630  
296.500000	2.582736  
297.000000	2.361575  
297.500000	2.130234  
298.000000	2.243920  
298.500000	2.242125  
299.000000	2.638075  
299.500000	3.099373  
300.000000	3.192899  
300.500000	3.369808  
301.000000	3.443377  
301.500000	3.569090  
302.000000	3.643560  
302.500000	4.046463  
303.000000	4.268530  
303.500000	4.474456  
304.000000	4.810537  
304.500000	4.581296  
305.000000	4.201252  
305.500000	3.497991  
306.000000	2.529617  
306.500000	1.352034  
307.000000	0.676180  
307.500000	0.244881  
308.000000	0.055901  
308.500000	0.635918  
309.000000	1.100270  
309.500000	1.595978  
310.000000	2.176888  
310.500000	2.543006  
311.000000	2.583057  
311.500000	2.536044  
312.000000	2.457427  
312.500000	2.265365  
313.000000	2.385367  
313.500000	2.392355  
314.000000	2.207163  
314.500000	2.156864  
315.000000	2.099620  
315.500000	2.012473  
316.000000	1.832242  
316.500000	1.763862  
317.000000	1.537824  
317.500000	1.529181  
318.000000	1.509355  
318.500000	1.381636  
319.000000	1.236255  
319.500000	1.086861  
320.000000	1.056642  
320.500000	1.104056  
321.000000	1.329387  
321.500000	1.384200  
322.000000	1.478902  
322.500000	1.443387  
323.000000	1.196108  
323.500000	0.755809  
324.000000	0.102679  
324.500000	-0.515733 
325.000000	-1.170951 
325.500000	-1.573859 
326.000000	-1.827299 
326.500000	-1.659624 
327.000000	-1.201074 
327.500000	-0.720353 
328.000000	-0.247276 
328.500000	0.212667  
329.000000	0.763373  
329.500000	1.163079  
330.000000	1.392660  
330.500000	1.400326  
331.000000	1.411529  
331.500000	1.546580  
332.000000	1.520897  
332.500000	1.433661  
333.000000	1.333294  
333.500000	1.401851  
334.000000	1.445715  
334.500000	1.378143  
335.000000	1.231919  
335.500000	1.091412  
336.000000	1.030916  
336.500000	0.911851  
337.000000	0.734832  
337.500000	0.512387  
338.000000	0.297363  
338.500000	0.205688  
339.000000	0.130944  
339.500000	0.115227  
340.000000	0.170026  
340.500000	0.312742  
341.000000	0.452803  
341.500000	0.608739  
342.000000	0.652855  
342.500000	0.625126  
343.000000	0.600580  
343.500000	0.621287  
344.000000	0.607342  
344.500000	0.661507  
345.000000	0.815490  
345.500000	1.077648  
346.000000	1.402517  
346.500000	1.642541  
347.000000	1.743792  
347.500000	1.720789  
348.000000	1.678186  
348.500000	1.504476  
349.000000	1.326379  
349.500000	1.172256  
350.000000	1.156365  
350.500000	1.255467  
351.000000	1.369699  
351.500000	1.443197  
352.000000	1.461446  
352.500000	1.473541  
353.000000	1.394394  
353.500000	1.269803  
354.000000	1.027285  
354.500000	0.863132  
355.000000	0.770195  
355.500000	0.823755  
356.000000	0.857239  
356.500000	1.005051  
357.000000	1.234512  
357.500000	1.567685  
358.000000	1.942225  
358.500000	2.144279  
359.000000	2.315877  
359.500000	2.386394  
360.000000	2.415704  
360.500000	2.302125  
361.000000	2.183485  
361.500000	2.048021  
362.000000	1.980807  
362.500000	1.990456  
363.000000	1.942210  
363.500000	1.991709  
364.000000	2.029009  
364.500000	2.009367  
365.000000	1.874321  
365.500000	1.722613  
366.000000	1.590629  
366.500000	1.478548  
367.000000	1.319095  
367.500000	1.174933  
368.000000	1.149565  
368.500000	1.225438  
369.000000	1.335178  
369.500000	1.414530  
370.000000	1.523977  
370.500000	1.618027  
371.000000	1.670065  
371.500000	1.562392  
372.000000	1.429661  
372.500000	1.243871  
373.000000	1.127471  
373.500000	1.113833  
374.000000	1.136143  
374.500000	1.222135  
375.000000	1.390413  
375.500000	1.585801  
376.000000	1.711798  
376.500000	1.877257  
377.000000	1.899507  
377.500000	1.845839  
378.000000	1.735147  
378.500000	1.607168  
379.000000	1.476994  
379.500000	1.419471  
380.000000	1.416667  
380.500000	1.473046  
381.000000	1.685202  
381.500000	1.882206  
382.000000	2.099458  
382.500000	2.239051  
383.000000	2.339075  
383.500000	2.293153  
384.000000	2.151592  
384.500000	1.955406  
385.000000	1.790138  
385.500000	1.727831  
386.000000	1.711726  
386.500000	1.787983  
387.000000	1.872543  
387.500000	1.991775  
388.000000	2.072013  
388.500000	2.108675  
389.000000	2.126224  
389.500000	2.105049  
390.000000	2.147283  
390.500000	2.184530  
391.000000	2.265583  
391.500000	2.369279  
392.000000	2.427943  
392.500000	2.404165  
393.000000	2.284291  
393.500000	2.154776  
394.000000	1.932720  
394.500000	1.708998  
395.000000	1.533072  
395.500000	1.415604  
396.000000	1.418760  
396.500000	1.452212  
397.000000	1.497859  
397.500000	1.471408  
398.000000	1.520390  
398.500000	1.535467  
399.000000	1.492397  
399.500000	1.467394  
400.000000	1.432384  
400.500000	1.433904  
401.000000	1.451309  
401.500000	1.541866  
402.000000	1.548616  
402.500000	1.556658  
403.000000	1.587292  
403.500000	1.563702  
404.000000	1.560441  
404.500000	1.535490  
405.000000	1.498432  
405.500000	1.458841  
406.000000	1.444144  
406.500000	1.414070  
407.000000	1.387135  
407.500000	1.399487  
408.000000	1.430862  
408.500000	1.479673  
409.000000	1.506269  
409.500000	1.521157  
410.000000	1.485538  
410.500000	1.421242  
411.000000	1.306650  
411.500000	1.142409  
412.000000	0.980941  
412.500000	0.850306  
413.000000	0.791264  
413.500000	0.738124  
414.000000	0.749687  
414.500000	0.789021  
415.000000	0.879269  
415.500000	0.932503  
416.000000	0.929261  
416.500000	0.888965  
417.000000	0.809395  
417.500000	0.762379  
418.000000	0.706174  
418.500000	0.671868  
419.000000	0.643272  
419.500000	0.696516  
420.000000	0.745814  
420.500000	0.780529  
421.000000	0.808267  
421.500000	0.792397  
422.000000	0.774519  
422.500000	0.727796  
423.000000	0.656394  
423.500000	0.578235  
424.000000	0.552653  
424.500000	0.549690  
425.000000	0.549387  
425.500000	0.549788  
426.000000	0.538585  
426.500000	0.515569  
427.000000	0.482236  
427.500000	0.454719  
428.000000	0.438790  
428.500000	0.432435  
429.000000	0.437328  
429.500000	0.451267  
430.000000	0.461350  
430.500000	0.469140  
431.000000	0.466203  
431.500000	0.419899  
432.000000	0.372761  
432.500000	0.341351  
433.000000	0.320393  
433.500000	0.324544  
434.000000	0.355864  
434.500000	0.400757  
435.000000	0.471080  
435.500000	0.538375  
436.000000	0.550851  
436.500000	0.531475  
437.000000	0.514934  
437.500000	0.503934  
438.000000	0.508630  
438.500000	0.519838  
439.000000	0.522741  
439.500000	0.524007  
440.000000	0.553927  
440.500000	0.568945  
441.000000	0.555175  
441.500000	0.529973  
442.000000	0.501243  
442.500000	0.492777  
443.000000	0.487202  
443.500000	0.479682  
444.000000	0.455869  
444.500000	0.458451  

