PE FL                   SPECTRUM    ASCII       PEDS        1.60        
  -1
PM27E7~1
23/10/10
16:53:09.00
23/10/10
16:53:09.00


444.500000
1









LS55
10.00
5.00
5.00
SCAN
1
20
100
100
0
500
0
2
0
1
7
ON
500 450 
1 0 0
#HDR
-1
-1
#GR
NM

0.00002384185791015625
0.0
300.000000
0.500000
290
8
97.159793
-3.802130
#DATA
300.000000	-2.702000 
300.500000	-3.023303 
301.000000	-3.345062 
301.500000	-3.501700 
302.000000	-3.763762 
302.500000	-3.802130 
303.000000	-3.730261 
303.500000	-3.443626 
304.000000	-3.091285 
304.500000	-2.612191 
305.000000	-2.197873 
305.500000	-1.911400 
306.000000	-1.660824 
306.500000	-1.713929 
307.000000	-1.955436 
307.500000	-2.348466 
308.000000	-2.751429 
308.500000	-3.137266 
309.000000	-3.311094 
309.500000	-3.432824 
310.000000	-3.552073 
310.500000	-3.477790 
311.000000	-3.324218 
311.500000	-3.100202 
312.000000	-2.820197 
312.500000	-2.464636 
313.000000	-2.204954 
313.500000	-1.705907 
314.000000	-1.142779 
314.500000	-0.774425 
315.000000	-0.675501 
315.500000	-0.583272 
316.000000	-0.522217 
316.500000	-0.555106 
317.000000	-0.650457 
317.500000	-1.053761 
318.000000	-1.308773 
318.500000	-1.469186 
319.000000	-1.573034 
319.500000	-1.742440 
320.000000	-1.855298 
320.500000	-1.703576 
321.000000	-1.318319 
321.500000	-0.745409 
322.000000	-0.354118 
322.500000	0.007494  
323.000000	0.288664  
323.500000	0.568332  
324.000000	0.595687  
324.500000	0.353008  
325.000000	-0.042622 
325.500000	-0.346125 
326.000000	-0.581931 
326.500000	-0.821706 
327.000000	-0.834084 
327.500000	-0.757956 
328.000000	-0.423854 
328.500000	0.040700  
329.000000	0.566961  
329.500000	1.041424  
330.000000	1.600030  
330.500000	2.286577  
331.000000	2.859815  
331.500000	3.664955  
332.000000	4.449596  
332.500000	5.240109  
333.000000	6.082028  
333.500000	7.040129  
334.000000	7.953249  
334.500000	8.885061  
335.000000	9.754775  
335.500000	10.376221 
336.000000	11.082891 
336.500000	11.886759 
337.000000	12.836854 
337.500000	14.066745 
338.000000	15.653024 
338.500000	17.998386 
339.000000	21.222627 
339.500000	25.253029 
340.000000	30.040661 
340.500000	35.611534 
341.000000	42.078364 
341.500000	49.378664 
342.000000	57.226908 
342.500000	64.746186 
343.000000	72.260989 
343.500000	79.503382 
344.000000	85.903936 
344.500000	91.106074 
345.000000	94.608164 
345.500000	96.379653 
346.000000	97.159793 
346.500000	96.869228 
347.000000	94.704710 
347.500000	91.595595 
348.000000	87.893374 
348.500000	83.822503 
349.000000	79.538166 
349.500000	74.997473 
350.000000	69.950370 
350.500000	65.067937 
351.000000	60.415969 
351.500000	55.301155 
352.000000	50.200998 
352.500000	45.153620 
353.000000	40.241051 
353.500000	35.639583 
354.000000	31.467109 
354.500000	27.445778 
355.000000	23.809944 
355.500000	20.682330 
356.000000	17.709694 
356.500000	15.141013 
357.000000	12.989290 
357.500000	11.204947 
358.000000	9.776312  
358.500000	8.733731  
359.000000	8.064996  
359.500000	7.432443  
360.000000	6.960083  
360.500000	6.441153  
361.000000	5.884246  
361.500000	5.366409  
362.000000	4.899638  
362.500000	4.701368  
363.000000	4.669362  
363.500000	4.811170  
364.000000	4.823762  
364.500000	4.817122  
365.000000	4.876408  
365.500000	4.806062  
366.000000	4.593723  
366.500000	4.314839  
367.000000	4.148282  
367.500000	4.100345  
368.000000	4.216968  
368.500000	4.300780  
369.000000	4.299713  
369.500000	4.358450  
370.000000	4.319322  
370.500000	4.161422  
371.000000	3.852784  
371.500000	3.484842  
372.000000	3.132384  
372.500000	2.877520  
373.000000	2.719970  
373.500000	2.552696  
374.000000	2.550079  
374.500000	2.676026  
375.000000	2.893206  
375.500000	3.192944  
376.000000	3.469415  
376.500000	3.705098  
377.000000	3.862792  
377.500000	3.994453  
378.000000	3.941128  
378.500000	3.729899  
379.000000	3.382385  
379.500000	3.001263  
380.000000	2.681664  
380.500000	2.395076  
381.000000	2.191473  
381.500000	2.071970  
382.000000	2.196984  
382.500000	2.443080  
383.000000	2.674773  
383.500000	2.882657  
384.000000	3.027405  
384.500000	3.113354  
385.000000	3.131986  
385.500000	3.074075  
386.000000	2.901020  
386.500000	2.773372  
387.000000	2.765767  
387.500000	2.734916  
388.000000	2.792157  
388.500000	2.865582  
389.000000	2.928171  
389.500000	2.979242  
390.000000	3.026075  
390.500000	3.036016  
391.000000	3.051223  
391.500000	3.146329  
392.000000	3.113037  
392.500000	3.108001  
393.000000	3.059496  
393.500000	2.969427  
394.000000	2.807193  
394.500000	2.591185  
395.000000	2.361845  
395.500000	2.161340  
396.000000	2.087741  
396.500000	2.021938  
397.000000	2.068317  
397.500000	2.177882  
398.000000	2.374678  
398.500000	2.566446  
399.000000	2.690684  
399.500000	2.819824  
400.000000	2.898918  
400.500000	2.917244  
401.000000	2.881047  
401.500000	2.796470  
402.000000	2.706974  
402.500000	2.625813  
403.000000	2.534495  
403.500000	2.420864  
404.000000	2.401984  
404.500000	2.409941  
405.000000	2.414382  
405.500000	2.416824  
406.000000	2.398719  
406.500000	2.409945  
407.000000	2.414853  
407.500000	2.413033  
408.000000	2.426302  
408.500000	2.476236  
409.000000	2.509247  
409.500000	2.534474  
410.000000	2.527038  
410.500000	2.501723  
411.000000	2.498820  
411.500000	2.465335  
412.000000	2.392525  
412.500000	2.389325  
413.000000	2.423423  
413.500000	2.461625  
414.000000	2.529451  
414.500000	2.569405  
415.000000	2.597383  
415.500000	2.637155  
416.000000	2.662744  
416.500000	2.637108  
417.000000	2.637649  
417.500000	2.643959  
418.000000	2.660287  
418.500000	2.690247  
419.000000	2.677053  
419.500000	2.625166  
420.000000	2.554018  
420.500000	2.474169  
421.000000	2.381090  
421.500000	2.276743  
422.000000	2.160711  
422.500000	2.066900  
423.000000	2.024074  
423.500000	1.992870  
424.000000	1.978934  
424.500000	1.981392  
425.000000	1.992219  
425.500000	2.013692  
426.000000	2.036467  
426.500000	2.034891  
427.000000	2.015199  
427.500000	2.003802  
428.000000	1.973680  
428.500000	1.928660  
429.000000	1.876542  
429.500000	1.824127  
430.000000	1.787106  
430.500000	1.803031  
431.000000	1.836652  
431.500000	1.885249  
432.000000	1.970087  
432.500000	2.060747  
433.000000	2.149989  
433.500000	2.204507  
434.000000	2.223408  
434.500000	2.197929  
435.000000	2.172556  
435.500000	2.140276  
436.000000	2.076937  
436.500000	2.014625  
437.000000	1.953708  
437.500000	1.913050  
438.000000	1.858025  
438.500000	1.797189  
439.000000	1.745358  
439.500000	1.725616  
440.000000	1.735527  
440.500000	1.747396  
441.000000	1.793254  
441.500000	1.847886  
442.000000	1.919096  
442.500000	1.958728  
443.000000	1.966531  
443.500000	1.953309  
444.000000	1.921248  
444.500000	1.887411  

