PE FL                   SPECTRUM    ASCII       PEDS        1.60        
  -1
PM77E7~1
23/10/10
16:56:00.00
23/10/10
16:56:00.00


444.500000
1









LS55
35.00
5.00
5.00
SCAN
1
20
100
100
0
500
0
2
0
1
7
ON
500 450 
1 0 0
#HDR
-1
-1
#GR
NM

0.00002384185791015625
0.0
300.000000
0.500000
290
8
74.740554
-5.000000
#DATA
300.000000	-5.000000 
300.500000	-4.189005 
301.000000	-3.511836 
301.500000	-2.950705 
302.000000	-2.384091 
302.500000	-1.970659 
303.000000	-1.514218 
303.500000	-0.869946 
304.000000	-0.248567 
304.500000	0.186025  
305.000000	0.751488  
305.500000	1.180072  
306.000000	1.783191  
306.500000	2.681214  
307.000000	3.583059  
307.500000	4.857558  
308.000000	6.690068  
308.500000	8.795134  
309.000000	10.760488 
309.500000	12.642455 
310.000000	13.893009 
310.500000	14.953182 
311.000000	15.990663 
311.500000	16.758705 
312.000000	17.491594 
312.500000	18.058763 
313.000000	18.719772 
313.500000	19.486176 
314.000000	20.327411 
314.500000	20.745674 
315.000000	20.799585 
315.500000	20.945138 
316.000000	21.219456 
316.500000	21.815031 
317.000000	22.391726 
317.500000	23.034012 
318.000000	24.286139 
318.500000	26.027434 
319.000000	27.963612 
319.500000	29.263570 
320.000000	30.019189 
320.500000	30.239309 
321.000000	30.177094 
321.500000	29.856307 
322.000000	29.274825 
322.500000	29.092100 
323.000000	29.381165 
323.500000	30.284894 
324.000000	31.313265 
324.500000	32.449739 
325.000000	33.200046 
325.500000	33.516108 
326.000000	33.493825 
326.500000	33.092649 
327.000000	32.464636 
327.500000	32.016595 
328.000000	31.864884 
328.500000	32.013881 
329.000000	32.567671 
329.500000	32.878946 
330.000000	32.868600 
330.500000	32.557299 
331.000000	32.054273 
331.500000	31.143787 
332.000000	30.158097 
332.500000	29.065566 
333.000000	28.007858 
333.500000	27.282281 
334.000000	26.874879 
334.500000	26.789695 
335.000000	26.743590 
335.500000	27.030858 
336.000000	27.312709 
336.500000	27.736215 
337.000000	28.207162 
337.500000	28.800193 
338.000000	29.392149 
338.500000	30.330180 
339.000000	31.693652 
339.500000	33.665323 
340.000000	36.127716 
340.500000	39.117056 
341.000000	43.015523 
341.500000	47.742326 
342.000000	53.126524 
342.500000	58.309519 
343.000000	63.334254 
343.500000	67.732957 
344.000000	71.533287 
344.500000	73.953839 
345.000000	74.740554 
345.500000	74.299174 
346.000000	72.882599 
346.500000	70.625457 
347.000000	67.332200 
347.500000	63.516728 
348.000000	59.154810 
348.500000	54.947567 
349.000000	50.391075 
349.500000	45.512759 
350.000000	40.825677 
350.500000	36.611185 
351.000000	32.788520 
351.500000	29.076212 
352.000000	25.771511 
352.500000	22.944961 
353.000000	20.680620 
353.500000	18.521271 
354.000000	16.410297 
354.500000	14.539137 
355.000000	12.910937 
355.500000	11.500277 
356.000000	10.119669 
356.500000	8.837171  
357.000000	7.752698  
357.500000	6.988599  
358.000000	6.381001  
358.500000	5.869676  
359.000000	5.531266  
359.500000	5.204675  
360.000000	4.900908  
360.500000	4.556345  
361.000000	4.168000  
361.500000	3.732293  
362.000000	3.372919  
362.500000	3.055520  
363.000000	2.761736  
363.500000	2.655825  
364.000000	2.513591  
364.500000	2.268593  
365.000000	1.987590  
365.500000	1.734570  
366.000000	1.497899  
366.500000	1.407295  
367.000000	1.454672  
367.500000	1.567296  
368.000000	1.885487  
368.500000	2.184999  
369.000000	2.367976  
369.500000	2.352766  
370.000000	2.289222  
370.500000	2.093011  
371.000000	1.930356  
371.500000	1.802384  
372.000000	1.701910  
372.500000	1.755241  
373.000000	1.847578  
373.500000	1.911064  
374.000000	1.808141  
374.500000	1.727111  
375.000000	1.555647  
375.500000	1.437145  
376.000000	1.253205  
376.500000	1.155159  
377.000000	1.113405  
377.500000	1.133335  
378.000000	1.169225  
378.500000	1.141882  
379.000000	1.183990  
379.500000	1.273603  
380.000000	1.448268  
380.500000	1.564616  
381.000000	1.723446  
381.500000	1.815295  
382.000000	1.884722  
382.500000	1.948431  
383.000000	1.937094  
383.500000	1.887424  
384.000000	1.852041  
384.500000	1.874854  
385.000000	1.904511  
385.500000	1.952011  
386.000000	1.945091  
386.500000	1.861634  
387.000000	1.749164  
387.500000	1.647651  
388.000000	1.541982  
388.500000	1.454179  
389.000000	1.363415  
389.500000	1.331413  
390.000000	1.332240  
390.500000	1.325868  
391.000000	1.232983  
391.500000	1.124105  
392.000000	1.089119  
392.500000	1.110226  
393.000000	1.173648  
393.500000	1.232282  
394.000000	1.352179  
394.500000	1.522022  
395.000000	1.693769  
395.500000	1.758028  
396.000000	1.714448  
396.500000	1.666065  
397.000000	1.606291  
397.500000	1.559533  
398.000000	1.469162  
398.500000	1.436995  
399.000000	1.496713  
399.500000	1.608341  
400.000000	1.687084  
400.500000	1.692406  
401.000000	1.652740  
401.500000	1.581627  
402.000000	1.515471  
402.500000	1.391254  
403.000000	1.297024  
403.500000	1.266363  
404.000000	1.269229  
404.500000	1.319495  
405.000000	1.369393  
405.500000	1.382591  
406.000000	1.360704  
406.500000	1.339126  
407.000000	1.259149  
407.500000	1.159932  
408.000000	1.122835  
408.500000	1.102870  
409.000000	1.144663  
409.500000	1.270618  
410.000000	1.370499  
410.500000	1.446317  
411.000000	1.481799  
411.500000	1.449281  
412.000000	1.351415  
412.500000	1.250167  
413.000000	1.113671  
413.500000	0.967070  
414.000000	0.895390  
414.500000	0.830378  
415.000000	0.818680  
415.500000	0.830461  
416.000000	0.856757  
416.500000	0.890612  
417.000000	0.933767  
417.500000	0.998665  
418.000000	1.017750  
418.500000	1.052250  
419.000000	1.062753  
419.500000	1.104636  
420.000000	1.124429  
420.500000	1.118362  
421.000000	1.127813  
421.500000	1.143971  
422.000000	1.202063  
422.500000	1.264492  
423.000000	1.295753  
423.500000	1.284943  
424.000000	1.286894  
424.500000	1.230549  
425.000000	1.157963  
425.500000	1.088816  
426.000000	1.013164  
426.500000	0.959559  
427.000000	0.942856  
427.500000	0.923425  
428.000000	0.913822  
428.500000	0.949034  
429.000000	0.957436  
429.500000	0.985256  
430.000000	1.023922  
430.500000	1.060111  
431.000000	1.062174  
431.500000	1.080789  
432.000000	1.079441  
432.500000	1.071486  
433.000000	1.068052  
433.500000	1.035712  
434.000000	1.013248  
434.500000	1.007321  
435.000000	1.001519  
435.500000	0.979524  
436.000000	0.984974  
436.500000	1.003880  
437.000000	1.022173  
437.500000	1.049259  
438.000000	1.073172  
438.500000	1.094078  
439.000000	1.101412  
439.500000	1.096497  
440.000000	1.033430  
440.500000	0.939802  
441.000000	0.841313  
441.500000	0.738844  
442.000000	0.661656  
442.500000	0.627122  
443.000000	0.621636  
443.500000	0.643524  
444.000000	0.713498  
444.500000	0.787665  

