PE FL                   SPECTRUM    ASCII       PEDS        1.60        
  -1
PM17E7~1
23/10/10
16:52:35.00
23/10/10
16:52:35.00


444.500000
1









LS55
5.00
5.00
5.00
SCAN
1
20
100
100
0
500
0
2
0
1
7
ON
500 450 
1 0 0
#HDR
-1
-1
#GR
NM

0.00002384185791015625
0.0
300.000000
0.500000
290
8
112.592520
-3.056931
#DATA
300.000000	-0.000000  
300.500000	-0.378565  
301.000000	-0.692547  
301.500000	-0.803911  
302.000000	-1.059561  
302.500000	-1.219005  
303.000000	-1.350660  
303.500000	-1.325613  
304.000000	-1.511423  
304.500000	-1.644720  
305.000000	-1.806402  
305.500000	-1.918935  
306.000000	-1.931766  
306.500000	-2.174740  
307.000000	-2.398666  
307.500000	-2.374116  
308.000000	-2.443404  
308.500000	-2.711615  
309.000000	-2.906803  
309.500000	-3.056931  
310.000000	-2.896626  
310.500000	-2.606847  
311.000000	-2.288210  
311.500000	-1.910841  
312.000000	-1.558518  
312.500000	-1.324337  
313.000000	-1.369245  
313.500000	-1.454528  
314.000000	-1.707663  
314.500000	-1.759136  
315.000000	-1.648081  
315.500000	-1.447469  
316.000000	-1.101337  
316.500000	-0.858269  
317.000000	-0.740112  
317.500000	-0.827688  
318.000000	-1.028207  
318.500000	-1.439812  
319.000000	-1.787703  
319.500000	-2.052038  
320.000000	-2.186265  
320.500000	-1.995801  
321.000000	-1.685165  
321.500000	-1.288278  
322.000000	-0.873561  
322.500000	-0.562424  
323.000000	-0.432701  
323.500000	-0.494690  
324.000000	-0.668050  
324.500000	-0.984232  
325.000000	-1.425518  
325.500000	-1.803196  
326.000000	-2.088251  
326.500000	-2.108590  
327.000000	-1.952370  
327.500000	-1.677717  
328.000000	-1.381463  
328.500000	-0.931236  
329.000000	-0.564527  
329.500000	-0.327561  
330.000000	-0.315669  
330.500000	-0.480732  
331.000000	-0.657545  
331.500000	-0.762156  
332.000000	-0.852343  
332.500000	-0.906802  
333.000000	-0.703646  
333.500000	-0.297000  
334.000000	0.267066   
334.500000	0.766450   
335.000000	1.298205   
335.500000	1.854767   
336.000000	2.538752   
336.500000	3.259939   
337.000000	4.040323   
337.500000	5.194830   
338.000000	6.735937   
338.500000	8.613333   
339.000000	10.703340  
339.500000	13.335226  
340.000000	17.030958  
340.500000	21.741832  
341.000000	27.421677  
341.500000	33.861049  
342.000000	41.239948  
342.500000	49.492787  
343.000000	58.280031  
343.500000	66.735860  
344.000000	74.434389  
344.500000	81.785900  
345.000000	88.168267  
345.500000	93.432418  
346.000000	97.414348  
346.500000	100.218264 
347.000000	102.256718 
347.500000	104.198370 
348.000000	105.582132 
348.500000	106.059094 
349.000000	106.249720 
349.500000	105.844712 
350.000000	105.230625 
350.500000	104.277700 
351.000000	102.418821 
351.500000	99.889548  
352.000000	97.605555  
352.500000	95.632750  
353.000000	93.710666  
353.500000	92.112763  
354.000000	90.522300  
354.500000	90.126342  
355.000000	91.075525  
355.500000	92.936084  
356.000000	95.315920  
356.500000	98.588332  
357.000000	102.050250 
357.500000	105.726137 
358.000000	109.198055 
358.500000	111.125361 
359.000000	112.219179 
359.500000	112.592520 
360.000000	112.365358 
360.500000	111.533816 
361.000000	110.893618 
361.500000	110.017368 
362.000000	109.482182 
362.500000	109.786225 
363.000000	110.055267 
363.500000	110.680174 
364.000000	111.178236 
364.500000	111.596610 
365.000000	111.459328 
365.500000	110.948576 
366.000000	109.472817 
366.500000	107.233628 
367.000000	104.890043 
367.500000	102.142387 
368.000000	99.886676  
368.500000	98.003287  
369.000000	96.649080  
369.500000	95.693150  
370.000000	95.397928  
370.500000	95.405630  
371.000000	95.440320  
371.500000	95.617846  
372.000000	95.307161  
372.500000	95.002960  
373.000000	94.651294  
373.500000	94.199410  
374.000000	93.685989  
374.500000	93.785643  
375.000000	94.395105  
375.500000	95.399270  
376.000000	96.858898  
376.500000	98.374662  
377.000000	99.591971  
377.500000	100.896848 
378.000000	101.857622 
378.500000	102.095177 
379.000000	101.893707 
379.500000	101.328820 
380.000000	100.495382 
380.500000	99.935734  
381.000000	99.520974  
381.500000	98.630177  
382.000000	97.784052  
382.500000	96.950028  
383.000000	96.217849  
383.500000	95.233884  
384.000000	93.981541  
384.500000	92.217194  
385.000000	90.539144  
385.500000	88.921941  
386.000000	87.082379  
386.500000	84.870708  
387.000000	82.257655  
387.500000	79.600819  
388.000000	76.746662  
388.500000	73.884027  
389.000000	70.465925  
389.500000	66.749093  
390.000000	62.912956  
390.500000	59.303682  
391.000000	55.655758  
391.500000	51.979787  
392.000000	48.559423  
392.500000	45.510967  
393.000000	43.355848  
393.500000	42.038244  
394.000000	41.147271  
394.500000	40.661840  
395.000000	40.833615  
395.500000	41.125026  
396.000000	41.339845  
396.500000	41.313165  
397.000000	40.790229  
397.500000	39.984435  
398.000000	38.972579  
398.500000	37.549431  
399.000000	35.793858  
399.500000	34.050612  
400.000000	32.279946  
400.500000	30.643004  
401.000000	29.237385  
401.500000	27.973105  
402.000000	27.017689  
402.500000	26.516427  
403.000000	26.231999  
403.500000	26.011005  
404.000000	25.844830  
404.500000	25.617503  
405.000000	25.181869  
405.500000	24.700425  
406.000000	23.878802  
406.500000	22.802286  
407.000000	21.675680  
407.500000	20.650316  
408.000000	19.737230  
408.500000	19.028373  
409.000000	18.598128  
409.500000	18.471383  
410.000000	18.772896  
410.500000	19.228831  
411.000000	19.605204  
411.500000	19.823683  
412.000000	19.933177  
412.500000	19.929415  
413.000000	19.916029  
413.500000	19.752364  
414.000000	19.560253  
414.500000	19.545725  
415.000000	19.753272  
415.500000	20.177909  
416.000000	20.703218  
416.500000	21.361064  
417.000000	21.961346  
417.500000	22.781801  
418.000000	23.639632  
418.500000	24.502909  
419.000000	25.187796  
419.500000	25.825524  
420.000000	26.603056  
420.500000	27.522185  
421.000000	28.337481  
421.500000	28.866470  
422.000000	29.455988  
422.500000	30.029447  
423.000000	30.725779  
423.500000	31.248419  
424.000000	31.641773  
424.500000	32.169627  
425.000000	33.212917  
425.500000	34.462391  
426.000000	35.641034  
426.500000	36.785404  
427.000000	37.737435  
427.500000	38.762699  
428.000000	39.551006  
428.500000	39.969253  
429.000000	40.248612  
429.500000	40.879586  
430.000000	41.741294  
430.500000	43.108584  
431.000000	44.964243  
431.500000	47.277470  
432.000000	50.033393  
432.500000	53.678584  
433.000000	57.733126  
433.500000	61.848743  
434.000000	66.124502  
434.500000	70.123025  
435.000000	73.822477  
435.500000	77.105461  
436.000000	79.639809  
436.500000	80.914980  
437.000000	81.817805  
437.500000	82.192193  
438.000000	82.161040  
438.500000	81.887915  
439.000000	81.432148  
439.500000	81.212673  
440.000000	82.018522  
440.500000	83.434180  
441.000000	84.954200  
441.500000	87.057723  
442.000000	89.540940  
442.500000	92.195056  
443.000000	94.878620  
443.500000	97.069796  
444.000000	98.457657  
444.500000	100.035493 

