PE FL                   SPECTRUM    ASCII       PEDS        1.60        
  -1
PM37E7~1
23/10/10
16:53:43.00
23/10/10
16:53:43.00


444.500000
1









LS55
15.00
5.00
5.00
SCAN
1
20
100
100
0
500
0
2
0
1
7
ON
500 450 
1 0 0
#HDR
-1
-1
#GR
NM

0.00002384185791015625
0.0
300.000000
0.500000
290
8
102.617921
-3.162992
#DATA
300.000000	1.032000   
300.500000	-0.372971  
301.000000	-1.487696  
301.500000	-2.165462  
302.000000	-2.557400  
302.500000	-2.785407  
303.000000	-2.587631  
303.500000	-1.984183  
304.000000	-1.342594  
304.500000	-0.975369  
305.000000	-1.031300  
305.500000	-1.323514  
306.000000	-1.737273  
306.500000	-2.181364  
307.000000	-2.852243  
307.500000	-3.162992  
308.000000	-3.056213  
308.500000	-2.677662  
309.000000	-2.203251  
309.500000	-1.763458  
310.000000	-1.449997  
310.500000	-1.386779  
311.000000	-1.388659  
311.500000	-1.837009  
312.000000	-2.271421  
312.500000	-2.519406  
313.000000	-2.542906  
313.500000	-2.314242  
314.000000	-1.929612  
314.500000	-1.262122  
315.000000	-0.604695  
315.500000	0.049413   
316.000000	0.399389   
316.500000	0.423325   
317.000000	0.316518   
317.500000	-0.126389  
318.000000	-0.656367  
318.500000	-1.367759  
319.000000	-1.844585  
319.500000	-2.139197  
320.000000	-2.103950  
320.500000	-1.817952  
321.000000	-1.485863  
321.500000	-0.928589  
322.000000	-0.532237  
322.500000	-0.161896  
323.000000	-0.096453  
323.500000	-0.172723  
324.000000	-0.229600  
324.500000	-0.391080  
325.000000	-0.359586  
325.500000	-0.330256  
326.000000	-0.010181  
326.500000	0.501126   
327.000000	1.225875   
327.500000	2.017978   
328.000000	2.843645   
328.500000	3.910518   
329.000000	4.931092   
329.500000	6.140370   
330.000000	7.460713   
330.500000	8.761876   
331.000000	10.083381  
331.500000	11.449222  
332.000000	12.731446  
332.500000	14.123988  
333.000000	15.656138  
333.500000	17.178105  
334.000000	18.615816  
334.500000	20.196255  
335.000000	21.722143  
335.500000	23.185135  
336.000000	24.646827  
336.500000	25.754924  
337.000000	26.917298  
337.500000	28.151307  
338.000000	29.834359  
338.500000	31.577465  
339.000000	33.957942  
339.500000	37.346893  
340.000000	41.898134  
340.500000	47.467664  
341.000000	53.631377  
341.500000	60.413930  
342.000000	67.815788  
342.500000	75.585697  
343.000000	82.942089  
343.500000	89.348673  
344.000000	94.830001  
344.500000	99.116975  
345.000000	101.692624 
345.500000	102.617921 
346.000000	101.889573 
346.500000	100.179345 
347.000000	97.591236  
347.500000	94.168237  
348.000000	89.846004  
348.500000	85.178076  
349.000000	80.312407  
349.500000	74.837975  
350.000000	68.908616  
350.500000	62.623808  
351.000000	56.735480  
351.500000	51.138034  
352.000000	45.852061  
352.500000	40.909572  
353.000000	36.619654  
353.500000	32.928960  
354.000000	29.477154  
354.500000	26.045543  
355.000000	22.627837  
355.500000	19.586247  
356.000000	16.956825  
356.500000	14.512791  
357.000000	12.351348  
357.500000	10.582631  
358.000000	9.204222   
358.500000	8.230701   
359.000000	7.406738   
359.500000	6.647182   
360.000000	6.087819   
360.500000	5.690717   
361.000000	5.250285   
361.500000	4.891799   
362.000000	4.717535   
362.500000	4.670413   
363.000000	4.727729   
363.500000	4.767116   
364.000000	4.737259   
364.500000	4.733124   
365.000000	4.691909   
365.500000	4.432490   
366.000000	4.085764   
366.500000	3.832553   
367.000000	3.629585   
367.500000	3.477256   
368.000000	3.220057   
368.500000	2.829644   
369.000000	2.534554   
369.500000	2.344507   
370.000000	2.107992   
370.500000	1.891110   
371.000000	1.836506   
371.500000	1.929795   
372.000000	2.245226   
372.500000	2.595933   
373.000000	2.839548   
373.500000	3.083466   
374.000000	3.305469   
374.500000	3.364208   
375.000000	3.219770   
375.500000	2.987123   
376.000000	2.679625   
376.500000	2.459328   
377.000000	2.351615   
377.500000	2.243722   
378.000000	2.214235   
378.500000	2.257238   
379.000000	2.375479   
379.500000	2.416015   
380.000000	2.408967   
380.500000	2.307546   
381.000000	2.148005   
381.500000	2.072622   
382.000000	1.918021   
382.500000	1.862239   
383.000000	1.821005   
383.500000	1.867897   
384.000000	1.907974   
384.500000	2.004130   
385.000000	2.064666   
385.500000	2.038085   
386.000000	2.062757   
386.500000	2.008963   
387.000000	1.968486   
387.500000	1.900393   
388.000000	1.837517   
388.500000	1.810066   
389.000000	1.880385   
389.500000	1.980605   
390.000000	2.036076   
390.500000	2.092561   
391.000000	2.139634   
391.500000	2.151966   
392.000000	2.142081   
392.500000	2.102223   
393.000000	2.073528   
393.500000	2.080076   
394.000000	2.132974   
394.500000	2.130790   
395.000000	2.129202   
395.500000	2.138457   
396.000000	2.095223   
396.500000	2.035871   
397.000000	1.951618   
397.500000	1.923160   
398.000000	1.927958   
398.500000	1.986804   
399.000000	2.029775   
399.500000	2.143333   
400.000000	2.222209   
400.500000	2.290437   
401.000000	2.344887   
401.500000	2.372408   
402.000000	2.357738   
402.500000	2.326066   
403.000000	2.283377   
403.500000	2.186431   
404.000000	2.143724   
404.500000	2.063124   
405.000000	2.003419   
405.500000	1.966078   
406.000000	1.918323   
406.500000	1.842443   
407.000000	1.793858   
407.500000	1.795288   
408.000000	1.830029   
408.500000	1.928148   
409.000000	2.029137   
409.500000	2.147451   
410.000000	2.286852   
410.500000	2.428233   
411.000000	2.482012   
411.500000	2.460401   
412.000000	2.419665   
412.500000	2.353637   
413.000000	2.282649   
413.500000	2.206691   
414.000000	2.122714   
414.500000	2.082115   
415.000000	2.068175   
415.500000	2.046675   
416.000000	1.972787   
416.500000	1.926956   
417.000000	1.882094   
417.500000	1.840974   
418.000000	1.829130   
418.500000	1.808497   
419.000000	1.819510   
419.500000	1.859009   
420.000000	1.905919   
420.500000	1.933592   
421.000000	1.992341   
421.500000	2.034491   
422.000000	2.043608   
422.500000	2.042507   
423.000000	2.007468   
423.500000	1.973951   
424.000000	1.945217   
424.500000	1.924128   
425.000000	1.892759   
425.500000	1.896098   
426.000000	1.909627   
426.500000	1.909654   
427.000000	1.907826   
427.500000	1.906436   
428.000000	1.892299   
428.500000	1.867551   
429.000000	1.845307   
429.500000	1.811416   
430.000000	1.770303   
430.500000	1.717346   
431.000000	1.647685   
431.500000	1.572489   
432.000000	1.516617   
432.500000	1.455543   
433.000000	1.392394   
433.500000	1.365625   
434.000000	1.368314   
434.500000	1.396236   
435.000000	1.438988   
435.500000	1.486285   
436.000000	1.535685   
436.500000	1.595799   
437.000000	1.635092   
437.500000	1.645699   
438.000000	1.632934   
438.500000	1.605253   
439.000000	1.572178   
439.500000	1.535305   
440.000000	1.496096   
440.500000	1.476507   
441.000000	1.476830   
441.500000	1.489300   
442.000000	1.518058   
442.500000	1.538153   
443.000000	1.543790   
443.500000	1.529662   
444.000000	1.513502   
444.500000	1.487817   

