PE FL                   SPECTRUM    ASCII       PEDS        1.60        
  -1
PM87E7~1
23/10/10
16:56:34.00
23/10/10
16:56:34.00


444.500000
1









LS55
40.00
5.00
5.00
SCAN
1
20
100
100
0
500
0
2
0
1
7
ON
500 450 
1 0 0
#HDR
-1
-1
#GR
NM

0.00002384185791015625
0.0
300.000000
0.500000
290
8
60.069722
0.769086
#DATA
300.000000	2.590000  
300.500000	3.122671  
301.000000	3.656624  
301.500000	4.605821  
302.000000	5.436314  
302.500000	5.850578  
303.000000	6.388343  
303.500000	7.018800  
304.000000	7.491526  
304.500000	8.043728  
305.000000	8.540781  
305.500000	9.369017  
306.000000	10.830259 
306.500000	12.796363 
307.000000	14.808863 
307.500000	17.107562 
308.000000	19.588625 
308.500000	21.979897 
309.000000	24.038476 
309.500000	25.382503 
310.000000	25.906480 
310.500000	25.991777 
311.000000	25.798405 
311.500000	25.020654 
312.000000	23.959016 
312.500000	23.044489 
313.000000	22.662293 
313.500000	22.572208 
314.000000	22.788164 
314.500000	23.690262 
315.000000	24.699954 
315.500000	26.054618 
316.000000	27.559394 
316.500000	28.877509 
317.000000	29.828787 
317.500000	30.484226 
318.000000	30.850722 
318.500000	30.541237 
319.000000	30.516100 
319.500000	30.047691 
320.000000	29.739423 
320.500000	29.987388 
321.000000	30.729554 
321.500000	31.471232 
322.000000	32.208612 
322.500000	33.048958 
323.000000	33.326645 
323.500000	33.753889 
324.000000	33.567038 
324.500000	32.977302 
325.000000	32.278511 
325.500000	31.709533 
326.000000	30.996246 
326.500000	30.115176 
327.000000	29.662859 
327.500000	29.395169 
328.000000	29.263880 
328.500000	29.043845 
329.000000	28.877598 
329.500000	28.910492 
330.000000	28.908942 
330.500000	28.863448 
331.000000	28.599151 
331.500000	28.450699 
332.000000	28.361820 
332.500000	28.192878 
333.000000	27.902664 
333.500000	27.455070 
334.000000	27.176261 
334.500000	26.895509 
335.000000	26.511473 
335.500000	26.195569 
336.000000	25.987578 
336.500000	26.041430 
337.000000	26.577380 
337.500000	27.075596 
338.000000	27.682329 
338.500000	28.830110 
339.000000	30.604355 
339.500000	32.618872 
340.000000	34.984426 
340.500000	37.746875 
341.000000	40.782795 
341.500000	44.440638 
342.000000	47.999439 
342.500000	50.972841 
343.000000	53.590137 
343.500000	56.107977 
344.000000	58.205933 
344.500000	59.490297 
345.000000	60.069722 
345.500000	59.762281 
346.000000	59.070343 
346.500000	57.922620 
347.000000	55.558527 
347.500000	52.539589 
348.000000	49.292685 
348.500000	46.180637 
349.000000	42.884314 
349.500000	39.699973 
350.000000	36.405373 
350.500000	33.097840 
351.000000	30.360125 
351.500000	27.415443 
352.000000	24.439255 
352.500000	21.526831 
353.000000	18.914911 
353.500000	16.496858 
354.000000	14.475711 
354.500000	12.811755 
355.000000	11.321669 
355.500000	10.212601 
356.000000	9.182770  
356.500000	8.426176  
357.000000	7.857568  
357.500000	7.481195  
358.000000	7.033824  
358.500000	6.637480  
359.000000	6.338599  
359.500000	5.851355  
360.000000	5.240806  
360.500000	4.589114  
361.000000	4.046425  
361.500000	3.562706  
362.000000	3.300795  
362.500000	3.081498  
363.000000	2.937116  
363.500000	3.028001  
364.000000	3.149024  
364.500000	3.222600  
365.000000	3.227581  
365.500000	3.242659  
366.000000	3.142736  
366.500000	3.132638  
367.000000	3.048866  
367.500000	2.942802  
368.000000	2.959643  
368.500000	2.945727  
369.000000	2.925867  
369.500000	2.820506  
370.000000	2.700034  
370.500000	2.571417  
371.000000	2.537777  
371.500000	2.461068  
372.000000	2.337228  
372.500000	2.288491  
373.000000	2.255308  
373.500000	2.274243  
374.000000	2.220324  
374.500000	2.109341  
375.000000	2.006536  
375.500000	1.922921  
376.000000	1.840271  
376.500000	1.753833  
377.000000	1.733327  
377.500000	1.734734  
378.000000	1.779003  
378.500000	1.789988  
379.000000	1.784492  
379.500000	1.830989  
380.000000	1.874205  
380.500000	1.928333  
381.000000	1.977480  
381.500000	2.053545  
382.000000	2.173033  
382.500000	2.262916  
383.000000	2.274513  
383.500000	2.214244  
384.000000	2.093864  
384.500000	1.939317  
385.000000	1.779258  
385.500000	1.601718  
386.000000	1.432357  
386.500000	1.311081  
387.000000	1.286843  
387.500000	1.276977  
388.000000	1.310275  
388.500000	1.311483  
389.000000	1.376709  
389.500000	1.433537  
390.000000	1.499686  
390.500000	1.547852  
391.000000	1.540491  
391.500000	1.560633  
392.000000	1.512706  
392.500000	1.489442  
393.000000	1.382836  
393.500000	1.320716  
394.000000	1.237644  
394.500000	1.208428  
395.000000	1.227507  
395.500000	1.249124  
396.000000	1.318183  
396.500000	1.347195  
397.000000	1.408137  
397.500000	1.435562  
398.000000	1.456156  
398.500000	1.428906  
399.000000	1.422559  
399.500000	1.410557  
400.000000	1.411751  
400.500000	1.433727  
401.000000	1.452814  
401.500000	1.504598  
402.000000	1.541244  
402.500000	1.605121  
403.000000	1.655446  
403.500000	1.701301  
404.000000	1.716233  
404.500000	1.731401  
405.000000	1.725083  
405.500000	1.701709  
406.000000	1.656293  
406.500000	1.549601  
407.000000	1.416178  
407.500000	1.305513  
408.000000	1.196965  
408.500000	1.105665  
409.000000	1.048761  
409.500000	1.034768  
410.000000	1.037194  
410.500000	1.078992  
411.000000	1.139174  
411.500000	1.174907  
412.000000	1.235729  
412.500000	1.268007  
413.000000	1.280680  
413.500000	1.297827  
414.000000	1.316025  
414.500000	1.304936  
415.000000	1.266062  
415.500000	1.250879  
416.000000	1.200388  
416.500000	1.143988  
417.000000	1.069654  
417.500000	0.999327  
418.000000	0.948177  
418.500000	0.917811  
419.000000	0.933321  
419.500000	0.969024  
420.000000	0.997125  
420.500000	1.033863  
421.000000	1.079473  
421.500000	1.112339  
422.000000	1.128744  
422.500000	1.129644  
423.000000	1.089142  
423.500000	1.068604  
424.000000	1.079511  
424.500000	1.059004  
425.000000	1.024227  
425.500000	1.003878  
426.000000	0.995989  
426.500000	1.000770  
427.000000	0.991913  
427.500000	0.959276  
428.000000	0.932069  
428.500000	0.925538  
429.000000	0.885292  
429.500000	0.834953  
430.000000	0.812832  
430.500000	0.819719  
431.000000	0.858275  
431.500000	0.901391  
432.000000	0.954518  
432.500000	1.016260  
433.000000	1.066392  
433.500000	1.067489  
434.000000	1.045628  
434.500000	1.022535  
435.000000	0.975794  
435.500000	0.924188  
436.000000	0.874853  
436.500000	0.831477  
437.000000	0.810936  
437.500000	0.796604  
438.000000	0.774313  
438.500000	0.769086  
439.000000	0.791501  
439.500000	0.799884  
440.000000	0.826926  
440.500000	0.859944  
441.000000	0.891963  
441.500000	0.931929  
442.000000	0.976447  
442.500000	1.007309  
443.000000	1.023064  
443.500000	1.037831  
444.000000	1.017799  
444.500000	0.995072  

