PE FL                   SPECTRUM    ASCII       PEDS        1.60        
  -1
PM47E7~1
23/10/10
16:54:18.00
23/10/10
16:54:18.00


444.500000
1









LS55
20.00
5.00
5.00
SCAN
1
20
100
100
0
500
0
2
0
1
7
ON
500 450 
1 0 0
#HDR
-1
-1
#GR
NM

0.00002384185791015625
0.0
300.000000
0.500000
290
8
98.234545
-3.687521
#DATA
300.000000	0.000000  
300.500000	-0.703782 
301.000000	-1.271140 
301.500000	-1.541316 
302.000000	-1.865877 
302.500000	-2.171565 
303.000000	-2.323052 
303.500000	-2.197444 
304.000000	-2.234198 
304.500000	-2.416931 
305.000000	-2.792093 
305.500000	-3.216173 
306.000000	-3.407730 
306.500000	-3.568815 
307.000000	-3.687521 
307.500000	-3.625815 
308.000000	-3.347432 
308.500000	-2.947712 
309.000000	-2.477590 
309.500000	-2.193503 
310.000000	-2.119946 
310.500000	-2.082135 
311.000000	-2.176161 
311.500000	-2.333456 
312.000000	-2.484282 
312.500000	-2.612995 
313.000000	-2.624096 
313.500000	-2.453579 
314.000000	-2.310169 
314.500000	-2.252113 
315.000000	-2.314213 
315.500000	-2.479585 
316.000000	-2.511434 
316.500000	-2.487656 
317.000000	-2.191048 
317.500000	-1.927013 
318.000000	-1.500624 
318.500000	-0.863939 
319.000000	0.101990  
319.500000	1.135371  
320.000000	2.062493  
320.500000	2.982064  
321.000000	3.600288  
321.500000	4.364619  
322.000000	4.779276  
322.500000	4.860103  
323.000000	4.942547  
323.500000	5.370352  
324.000000	6.019757  
324.500000	6.945485  
325.000000	8.202496  
325.500000	9.432973  
326.000000	10.991594 
326.500000	12.476635 
327.000000	13.391977 
327.500000	14.115915 
328.000000	14.919264 
328.500000	15.763875 
329.000000	16.729586 
329.500000	17.819481 
330.000000	18.790132 
330.500000	19.965703 
331.000000	21.379443 
331.500000	22.377010 
332.000000	23.196967 
332.500000	24.101458 
333.000000	24.911550 
333.500000	25.770606 
334.000000	26.590668 
334.500000	27.367453 
335.000000	28.159999 
335.500000	29.209705 
336.000000	30.073839 
336.500000	30.768427 
337.000000	31.633938 
337.500000	32.691740 
338.000000	34.248243 
338.500000	36.412134 
339.000000	39.293322 
339.500000	42.660969 
340.000000	46.887289 
340.500000	51.750874 
341.000000	57.218998 
341.500000	63.496365 
342.000000	69.895143 
342.500000	76.153977 
343.000000	82.147737 
343.500000	87.659515 
344.000000	92.153599 
344.500000	95.485636 
345.000000	97.574262 
345.500000	98.234545 
346.000000	98.087828 
346.500000	96.874717 
347.000000	94.463375 
347.500000	91.125526 
348.000000	87.055794 
348.500000	82.300645 
349.000000	76.859760 
349.500000	71.101781 
350.000000	64.914491 
350.500000	58.977113 
351.000000	53.417646 
351.500000	48.106726 
352.000000	42.971366 
352.500000	38.130707 
353.000000	33.551160 
353.500000	29.115512 
354.000000	25.219255 
354.500000	21.658340 
355.000000	18.578960 
355.500000	16.078923 
356.000000	14.025642 
356.500000	12.270337 
357.000000	10.919541 
357.500000	9.737879  
358.000000	8.640892  
358.500000	7.734463  
359.000000	7.018441  
359.500000	6.416053  
360.000000	5.925024  
360.500000	5.458174  
361.000000	4.990840  
361.500000	4.628634  
362.000000	4.396423  
362.500000	4.192033  
363.000000	3.979413  
363.500000	3.749708  
364.000000	3.552193  
364.500000	3.455010  
365.000000	3.354803  
365.500000	3.206157  
366.000000	2.986995  
366.500000	2.813844  
367.000000	2.615327  
367.500000	2.413468  
368.000000	2.179044  
368.500000	1.930292  
369.000000	1.821909  
369.500000	1.767953  
370.000000	1.729920  
370.500000	1.695070  
371.000000	1.685400  
371.500000	1.719016  
372.000000	1.797410  
372.500000	1.850822  
373.000000	1.864771  
373.500000	1.921037  
374.000000	1.933508  
374.500000	1.879216  
375.000000	1.840355  
375.500000	1.820163  
376.000000	1.806943  
376.500000	1.882150  
377.000000	1.992011  
377.500000	2.150761  
378.000000	2.318687  
378.500000	2.477535  
379.000000	2.515665  
379.500000	2.439552  
380.000000	2.353696  
380.500000	2.233075  
381.000000	2.179870  
381.500000	2.072319  
382.000000	2.006339  
382.500000	1.935969  
383.000000	1.842697  
383.500000	1.725758  
384.000000	1.550360  
384.500000	1.443741  
385.000000	1.375361  
385.500000	1.429231  
386.000000	1.519876  
386.500000	1.705520  
387.000000	1.919728  
387.500000	2.039643  
388.000000	2.119419  
388.500000	2.146053  
389.000000	2.147523  
389.500000	2.197265  
390.000000	2.220778  
390.500000	2.213339  
391.000000	2.222145  
391.500000	2.245494  
392.000000	2.224416  
392.500000	2.108586  
393.000000	1.964661  
393.500000	1.776584  
394.000000	1.685145  
394.500000	1.605330  
395.000000	1.554702  
395.500000	1.543902  
396.000000	1.528177  
396.500000	1.551714  
397.000000	1.536777  
397.500000	1.506308  
398.000000	1.418816  
398.500000	1.367709  
399.000000	1.361688  
399.500000	1.403267  
400.000000	1.499259  
400.500000	1.599125  
401.000000	1.733456  
401.500000	1.869059  
402.000000	1.969891  
402.500000	2.017083  
403.000000	1.970538  
403.500000	1.905896  
404.000000	1.814088  
404.500000	1.700085  
405.000000	1.624094  
405.500000	1.582892  
406.000000	1.567425  
406.500000	1.567004  
407.000000	1.591347  
407.500000	1.602907  
408.000000	1.620792  
408.500000	1.631672  
409.000000	1.594170  
409.500000	1.580670  
410.000000	1.580242  
410.500000	1.608073  
411.000000	1.647795  
411.500000	1.704914  
412.000000	1.755566  
412.500000	1.812093  
413.000000	1.839041  
413.500000	1.824325  
414.000000	1.789857  
414.500000	1.761377  
415.000000	1.724865  
415.500000	1.675586  
416.000000	1.646600  
416.500000	1.649817  
417.000000	1.689254  
417.500000	1.717713  
418.000000	1.754364  
418.500000	1.772319  
419.000000	1.780296  
419.500000	1.784992  
420.000000	1.754047  
420.500000	1.714453  
421.000000	1.669042  
421.500000	1.622621  
422.000000	1.565407  
422.500000	1.540890  
423.000000	1.518604  
423.500000	1.505946  
424.000000	1.507624  
424.500000	1.489949  
425.000000	1.469614  
425.500000	1.467446  
426.000000	1.439031  
426.500000	1.396326  
427.000000	1.391052  
427.500000	1.427968  
428.000000	1.457935  
428.500000	1.458515  
429.000000	1.439667  
429.500000	1.400955  
430.000000	1.371693  
430.500000	1.328887  
431.000000	1.264247  
431.500000	1.225968  
432.000000	1.239791  
432.500000	1.279470  
433.000000	1.316019  
433.500000	1.373365  
434.000000	1.428838  
434.500000	1.494170  
435.000000	1.545367  
435.500000	1.564775  
436.000000	1.573667  
436.500000	1.569674  
437.000000	1.550360  
437.500000	1.512654  
438.000000	1.484510  
438.500000	1.446512  
439.000000	1.423355  
439.500000	1.412440  
440.000000	1.390281  
440.500000	1.372082  
441.000000	1.340692  
441.500000	1.301289  
442.000000	1.252307  
442.500000	1.219412  
443.000000	1.182614  
443.500000	1.170160  
444.000000	1.181235  
444.500000	1.182246  

