PE FL                   SPECTRUM    ASCII       PEDS        1.60        
  -1
PM57E7~1
23/10/10
16:54:52.00
23/10/10
16:54:52.00


444.500000
1









LS55
25.00
5.00
5.00
SCAN
1
20
100
100
0
500
0
2
0
1
7
ON
500 450 
1 0 0
#HDR
-1
-1
#GR
NM

0.00002384185791015625
0.0
300.000000
0.500000
290
8
88.977657
-2.713210
#DATA
300.000000	0.000000  
300.500000	-0.446789 
301.000000	-0.907038 
301.500000	-1.080949 
302.000000	-1.126678 
302.500000	-1.065824 
303.000000	-0.917418 
303.500000	-0.804515 
304.000000	-1.054002 
304.500000	-1.177353 
305.000000	-1.387589 
305.500000	-1.552328 
306.000000	-1.718301 
306.500000	-1.884704 
307.000000	-2.019193 
307.500000	-2.076344 
308.000000	-2.022987 
308.500000	-2.377666 
309.000000	-2.592117 
309.500000	-2.713210 
310.000000	-2.629371 
310.500000	-2.397996 
311.000000	-2.098419 
311.500000	-1.825050 
312.000000	-1.539862 
312.500000	-1.243824 
313.000000	-1.232507 
313.500000	-1.422053 
314.000000	-1.610763 
314.500000	-1.456439 
315.000000	-0.928136 
315.500000	-0.083671 
316.000000	1.005667  
316.500000	2.363057  
317.000000	3.931022  
317.500000	5.449369  
318.000000	6.689247  
318.500000	7.595395  
319.000000	8.441387  
319.500000	9.546774  
320.000000	10.734244 
320.500000	11.813437 
321.000000	12.662736 
321.500000	13.529278 
322.000000	14.508413 
322.500000	15.485641 
323.000000	16.446700 
323.500000	17.543774 
324.000000	19.135349 
324.500000	20.943870 
325.000000	22.764075 
325.500000	24.151637 
326.000000	25.144565 
326.500000	25.931733 
327.000000	26.429454 
327.500000	26.752998 
328.000000	27.062322 
328.500000	27.694476 
329.000000	28.616916 
329.500000	29.691937 
330.000000	30.724577 
330.500000	31.340292 
331.000000	31.893999 
331.500000	32.136115 
332.000000	32.233020 
332.500000	32.174018 
333.000000	32.074911 
333.500000	32.075824 
334.000000	31.945145 
334.500000	32.122953 
335.000000	32.119075 
335.500000	32.269028 
336.000000	32.282723 
336.500000	32.348970 
337.000000	32.541315 
337.500000	32.990508 
338.000000	33.915402 
338.500000	35.113788 
339.000000	37.147088 
339.500000	40.040534 
340.000000	43.881826 
340.500000	48.409789 
341.000000	53.480447 
341.500000	59.092916 
342.000000	64.901560 
342.500000	70.546621 
343.000000	75.725219 
343.500000	80.126826 
344.000000	83.821216 
344.500000	86.574464 
345.000000	88.428007 
345.500000	88.977657 
346.000000	88.531174 
346.500000	87.056325 
347.000000	84.557665 
347.500000	81.354326 
348.000000	77.572553 
348.500000	73.290692 
349.000000	68.536422 
349.500000	63.624711 
350.000000	58.343071 
350.500000	53.203050 
351.000000	48.099029 
351.500000	42.921319 
352.000000	38.049584 
352.500000	33.783893 
353.000000	29.822692 
353.500000	26.110959 
354.000000	22.822269 
354.500000	19.713380 
355.000000	17.029161 
355.500000	14.647786 
356.000000	12.379751 
356.500000	10.354631 
357.000000	8.852620  
357.500000	7.762606  
358.000000	6.998818  
358.500000	6.419906  
359.000000	5.897938  
359.500000	5.515733  
360.000000	5.137464  
360.500000	4.571935  
361.000000	3.997176  
361.500000	3.356210  
362.000000	2.916399  
362.500000	2.621822  
363.000000	2.339321  
363.500000	2.123642  
364.000000	2.064687  
364.500000	2.047590  
365.000000	2.001980  
365.500000	2.007812  
366.000000	1.879357  
366.500000	1.943024  
367.000000	2.105277  
367.500000	2.284827  
368.000000	2.449855  
368.500000	2.601411  
369.000000	2.686887  
369.500000	2.594271  
370.000000	2.363673  
370.500000	1.983781  
371.000000	1.669347  
371.500000	1.343215  
372.000000	1.141381  
372.500000	1.089782  
373.000000	1.100084  
373.500000	1.206190  
374.000000	1.370872  
374.500000	1.547135  
375.000000	1.704254  
375.500000	1.873237  
376.000000	1.961189  
376.500000	2.068084  
377.000000	2.119586  
377.500000	2.121051  
378.000000	2.098240  
378.500000	2.075844  
379.000000	2.026009  
379.500000	1.988983  
380.000000	1.960910  
380.500000	1.880609  
381.000000	1.831637  
381.500000	1.717526  
382.000000	1.623070  
382.500000	1.559167  
383.000000	1.487093  
383.500000	1.419091  
384.000000	1.383570  
384.500000	1.386551  
385.000000	1.391983  
385.500000	1.450637  
386.000000	1.462715  
386.500000	1.483807  
387.000000	1.545178  
387.500000	1.582245  
388.000000	1.574387  
388.500000	1.520125  
389.000000	1.488334  
389.500000	1.477127  
390.000000	1.509688  
390.500000	1.559665  
391.000000	1.636974  
391.500000	1.732151  
392.000000	1.771758  
392.500000	1.792847  
393.000000	1.731246  
393.500000	1.615106  
394.000000	1.499523  
394.500000	1.406791  
395.000000	1.393000  
395.500000	1.446180  
396.000000	1.522279  
396.500000	1.600035  
397.000000	1.690727  
397.500000	1.709421  
398.000000	1.646984  
398.500000	1.551311  
399.000000	1.427820  
399.500000	1.338581  
400.000000	1.288042  
400.500000	1.237500  
401.000000	1.236187  
401.500000	1.286872  
402.000000	1.357043  
402.500000	1.426340  
403.000000	1.491783  
403.500000	1.570991  
404.000000	1.646954  
404.500000	1.737719  
405.000000	1.741847  
405.500000	1.735664  
406.000000	1.750737  
406.500000	1.760358  
407.000000	1.782106  
407.500000	1.759469  
408.000000	1.752873  
408.500000	1.700927  
409.000000	1.690015  
409.500000	1.655873  
410.000000	1.590989  
410.500000	1.531249  
411.000000	1.460694  
411.500000	1.434592  
412.000000	1.432425  
412.500000	1.451796  
413.000000	1.455324  
413.500000	1.509194  
414.000000	1.593829  
414.500000	1.630235  
415.000000	1.664531  
415.500000	1.655329  
416.000000	1.648910  
416.500000	1.662872  
417.000000	1.655203  
417.500000	1.619491  
418.000000	1.594169  
418.500000	1.601724  
419.000000	1.596040  
419.500000	1.583272  
420.000000	1.522074  
420.500000	1.430903  
421.000000	1.378588  
421.500000	1.326823  
422.000000	1.239788  
422.500000	1.182505  
423.000000	1.145431  
423.500000	1.134128  
424.000000	1.136617  
424.500000	1.113430  
425.000000	1.074526  
425.500000	1.076015  
426.000000	1.118029  
426.500000	1.141456  
427.000000	1.167439  
427.500000	1.160407  
428.000000	1.165589  
428.500000	1.181392  
429.000000	1.182748  
429.500000	1.167026  
430.000000	1.163520  
430.500000	1.183924  
431.000000	1.213094  
431.500000	1.248003  
432.000000	1.241182  
432.500000	1.221964  
433.000000	1.203775  
433.500000	1.187683  
434.000000	1.185243  
434.500000	1.197072  
435.000000	1.223345  
435.500000	1.268289  
436.000000	1.311191  
436.500000	1.315068  
437.000000	1.293033  
437.500000	1.244921  
438.000000	1.177774  
438.500000	1.114732  
439.000000	1.064123  
439.500000	1.059387  
440.000000	1.083549  
440.500000	1.127671  
441.000000	1.166775  
441.500000	1.207423  
442.000000	1.232699  
442.500000	1.238609  
443.000000	1.227889  
443.500000	1.199411  
444.000000	1.184300  
444.500000	1.164544  

