PE FL                   SPECTRUM    ASCII       PEDS        1.60        
  -1
PPPP_2~2
23/10/10
14:30:31.00
23/10/10
14:30:31.00


444.500000
1









LS55
10.00
5.00
5.00
SCAN
1
20
100
100
0
500
0
2
0
1
7
ON
500 450 
1 0 0
#HDR
-1
-1
#GR
NM

0.00002384185791015625
0.0
250.000000
0.500000
390
8
3.529204
-5.357842
#DATA
250.000000	-3.485000 
250.500000	-2.008202 
251.000000	-0.857259 
251.500000	-0.261784 
252.000000	0.094744  
252.500000	0.154594  
253.000000	-0.155490 
253.500000	-1.085191 
254.000000	-2.213783 
254.500000	-3.208059 
255.000000	-3.962394 
255.500000	-4.531021 
256.000000	-5.063158 
256.500000	-5.357842 
257.000000	-5.265509 
257.500000	-4.962426 
258.000000	-4.426293 
258.500000	-3.889643 
259.000000	-3.420883 
259.500000	-3.123699 
260.000000	-2.727837 
260.500000	-2.269576 
261.000000	-1.602164 
261.500000	-0.642475 
262.000000	-0.272324 
262.500000	0.307981  
263.000000	1.197784  
263.500000	1.767520  
264.000000	1.852433  
264.500000	1.646930  
265.000000	1.120235  
265.500000	0.684906  
266.000000	0.632935  
266.500000	-0.079067 
267.000000	-0.806939 
267.500000	-0.960635 
268.000000	-1.169886 
268.500000	-1.385510 
269.000000	-1.585453 
269.500000	-2.059655 
270.000000	-2.441198 
270.500000	-2.248528 
271.000000	-2.140501 
271.500000	-2.224888 
272.000000	-2.274729 
272.500000	-2.532799 
273.000000	-2.336441 
273.500000	-1.937781 
274.000000	-1.938278 
274.500000	-2.008670 
275.000000	-1.894023 
275.500000	-1.602225 
276.000000	-1.479851 
276.500000	-1.633703 
277.000000	-2.330158 
277.500000	-2.715238 
278.000000	-2.704352 
278.500000	-2.688470 
279.000000	-2.605479 
279.500000	-2.326185 
280.000000	-1.609834 
280.500000	-0.710506 
281.000000	0.054413  
281.500000	0.282682  
282.000000	0.219940  
282.500000	0.352649  
283.000000	0.261631  
283.500000	0.067754  
284.000000	-0.063400 
284.500000	-0.012526 
285.000000	0.152906  
285.500000	0.387323  
286.000000	0.489545  
286.500000	0.148925  
287.000000	0.054316  
287.500000	-0.242735 
288.000000	-0.652335 
288.500000	-1.109709 
289.000000	-1.577211 
289.500000	-1.857781 
290.000000	-1.906390 
290.500000	-1.626026 
291.000000	-1.629636 
291.500000	-1.288850 
292.000000	-1.112814 
292.500000	-1.021404 
293.000000	-1.200771 
293.500000	-1.742100 
294.000000	-2.589073 
294.500000	-3.274661 
295.000000	-3.681272 
295.500000	-3.890625 
296.000000	-3.670717 
296.500000	-3.237885 
297.000000	-2.563055 
297.500000	-1.882333 
298.000000	-1.410530 
298.500000	-1.576270 
299.000000	-1.990955 
299.500000	-2.721170 
300.000000	-3.321172 
300.500000	-3.747165 
301.000000	-3.969253 
301.500000	-4.152402 
302.000000	-3.611459 
302.500000	-2.369221 
303.000000	-1.033915 
303.500000	0.466496  
304.000000	1.553443  
304.500000	2.511889  
305.000000	3.240125  
305.500000	3.529204  
306.000000	2.849197  
306.500000	2.103087  
307.000000	1.378214  
307.500000	0.659090  
308.000000	0.109573  
308.500000	-0.350976 
309.000000	-0.545355 
309.500000	-0.545541 
310.000000	-0.357413 
310.500000	-0.512712 
311.000000	-0.422538 
311.500000	-0.228597 
312.000000	0.027273  
312.500000	0.339174  
313.000000	0.803279  
313.500000	1.374159  
314.000000	1.811522  
314.500000	2.068871  
315.000000	2.154988  
315.500000	2.248127  
316.000000	2.233062  
316.500000	2.083010  
317.000000	1.966116  
317.500000	1.879459  
318.000000	1.970145  
318.500000	2.107558  
319.000000	2.196919  
319.500000	2.338981  
320.000000	2.409322  
320.500000	2.421171  
321.000000	2.077538  
321.500000	1.656769  
322.000000	1.250712  
322.500000	0.937504  
323.000000	0.701954  
323.500000	0.663298  
324.000000	1.025539  
324.500000	1.494534  
325.000000	2.124350  
325.500000	2.626073  
326.000000	2.895278  
326.500000	2.977395  
327.000000	2.903563  
327.500000	2.369213  
328.000000	1.753092  
328.500000	1.350677  
329.000000	0.949216  
329.500000	0.773941  
330.000000	0.754249  
330.500000	0.844628  
331.000000	1.018171  
331.500000	1.279073  
332.000000	1.252388  
332.500000	1.109712  
333.000000	1.040003  
333.500000	0.910998  
334.000000	0.868261  
334.500000	0.710927  
335.000000	0.679916  
335.500000	0.842983  
336.000000	1.117070  
336.500000	1.310181  
337.000000	1.557624  
337.500000	1.708629  
338.000000	1.664577  
338.500000	1.531224  
339.000000	1.190257  
339.500000	0.704135  
340.000000	0.375287  
340.500000	0.166630  
341.000000	0.002804  
341.500000	0.156311  
342.000000	0.504918  
342.500000	0.940380  
343.000000	1.424456  
343.500000	1.833579  
344.000000	1.971257  
344.500000	1.925658  
345.000000	1.761567  
345.500000	1.360156  
346.000000	0.901982  
346.500000	0.505724  
347.000000	0.172998  
347.500000	0.045788  
348.000000	0.145613  
348.500000	0.343987  
349.000000	0.563148  
349.500000	0.826027  
350.000000	1.035020  
350.500000	1.180379  
351.000000	1.211759  
351.500000	1.112382  
352.000000	1.015745  
352.500000	0.980698  
353.000000	0.976482  
353.500000	0.919894  
354.000000	0.807103  
354.500000	0.691232  
355.000000	0.616807  
355.500000	0.526609  
356.000000	0.491242  
356.500000	0.513183  
357.000000	0.731386  
357.500000	1.153916  
358.000000	1.573583  
358.500000	1.992864  
359.000000	2.317913  
359.500000	2.607822  
360.000000	2.652064  
360.500000	2.612716  
361.000000	2.492369  
361.500000	2.380409  
362.000000	2.420784  
362.500000	2.410651  
363.000000	2.340287  
363.500000	2.174755  
364.000000	2.043593  
364.500000	1.857531  
365.000000	1.584207  
365.500000	1.311922  
366.000000	1.037545  
366.500000	0.900002  
367.000000	0.913582  
367.500000	1.122745  
368.000000	1.332368  
368.500000	1.555109  
369.000000	1.814968  
369.500000	2.029263  
370.000000	2.223878  
370.500000	2.366677  
371.000000	2.349527  
371.500000	2.299588  
372.000000	2.264293  
372.500000	2.265175  
373.000000	2.165542  
373.500000	2.074621  
374.000000	2.090682  
374.500000	2.128744  
375.000000	2.205651  
375.500000	2.201568  
376.000000	2.087838  
376.500000	1.916364  
377.000000	1.850937  
377.500000	1.790021  
378.000000	1.720428  
378.500000	1.759305  
379.000000	1.836438  
379.500000	1.987851  
380.000000	2.167094  
380.500000	2.312699  
381.000000	2.326242  
381.500000	2.377689  
382.000000	2.381380  
382.500000	2.377846  
383.000000	2.348033  
383.500000	2.298029  
384.000000	2.251202  
384.500000	2.193552  
385.000000	2.118016  
385.500000	1.937367  
386.000000	1.778637  
386.500000	1.648966  
387.000000	1.623852  
387.500000	1.585262  
388.000000	1.588406  
388.500000	1.671282  
389.000000	1.759776  
389.500000	1.892751  
390.000000	1.946655  
390.500000	1.987027  
391.000000	2.021434  
391.500000	2.035814  
392.000000	1.975753  
392.500000	1.916042  
393.000000	1.857594  
393.500000	1.750917  
394.000000	1.685281  
394.500000	1.601260  
395.000000	1.536771  
395.500000	1.536601  
396.000000	1.565972  
396.500000	1.614400  
397.000000	1.720288  
397.500000	1.824119  
398.000000	1.875224  
398.500000	1.898350  
399.000000	1.838360  
399.500000	1.711080  
400.000000	1.531956  
400.500000	1.311910  
401.000000	1.097734  
401.500000	0.967194  
402.000000	0.948316  
402.500000	0.978558  
403.000000	1.078644  
403.500000	1.210564  
404.000000	1.333391  
404.500000	1.463116  
405.000000	1.505202  
405.500000	1.462263  
406.000000	1.328306  
406.500000	1.219701  
407.000000	1.061954  
407.500000	0.965023  
408.000000	0.924430  
408.500000	0.893556  
409.000000	0.968584  
409.500000	1.095287  
410.000000	1.243527  
410.500000	1.322083  
411.000000	1.432458  
411.500000	1.467949  
412.000000	1.500215  
412.500000	1.531966  
413.000000	1.545871  
413.500000	1.597174  
414.000000	1.669505  
414.500000	1.795598  
415.000000	1.901996  
415.500000	2.000431  
416.000000	2.032422  
416.500000	2.028532  
417.000000	1.991449  
417.500000	1.935774  
418.000000	1.869133  
418.500000	1.799238  
419.000000	1.770152  
419.500000	1.748983  
420.000000	1.722695  
420.500000	1.682110  
421.000000	1.641958  
421.500000	1.557311  
422.000000	1.465745  
422.500000	1.396082  
423.000000	1.330442  
423.500000	1.289316  
424.000000	1.293156  
424.500000	1.302250  
425.000000	1.325491  
425.500000	1.379238  
426.000000	1.438693  
426.500000	1.485247  
427.000000	1.525668  
427.500000	1.544158  
428.000000	1.553645  
428.500000	1.582671  
429.000000	1.585448  
429.500000	1.561246  
430.000000	1.538838  
430.500000	1.512620  
431.000000	1.487626  
431.500000	1.460130  
432.000000	1.415177  
432.500000	1.376113  
433.000000	1.367895  
433.500000	1.371693  
434.000000	1.372450  
434.500000	1.374010  
435.000000	1.393870  
435.500000	1.435184  
436.000000	1.480352  
436.500000	1.503461  
437.000000	1.514295  
437.500000	1.505110  
438.000000	1.494799  
438.500000	1.480208  
439.000000	1.464624  
439.500000	1.452786  
440.000000	1.448851  
440.500000	1.446209  
441.000000	1.442899  
441.500000	1.439724  
442.000000	1.422071  
442.500000	1.393716  
443.000000	1.360239  
443.500000	1.320653  
444.000000	1.284773  
444.500000	1.263277  

