PE FL                   SPECTRUM    ASCII       PEDS        1.60        
  -1
PPD3B0~1
23/10/10
14:35:55.00
23/10/10
14:35:55.00


444.500000
1









LS55
50.00
5.00
5.00
SCAN
1
20
100
100
0
500
0
2
0
1
7
ON
500 450 
1 0 0
#HDR
-1
-1
#GR
NM

0.00002384185791015625
0.0
250.000000
0.500000
390
8
12.483000
-4.478045
#DATA
250.000000	12.483000 
250.500000	6.840262  
251.000000	2.000192  
251.500000	-1.504441 
252.000000	-3.589268 
252.500000	-4.328327 
253.000000	-3.844782 
253.500000	-2.712659 
254.000000	-1.142076 
254.500000	-0.113214 
255.000000	0.527928  
255.500000	0.661812  
256.000000	0.751513  
256.500000	0.728396  
257.000000	0.358003  
257.500000	0.121979  
258.000000	-0.189900 
258.500000	-0.433869 
259.000000	-0.953976 
259.500000	-1.514888 
260.000000	-2.436512 
260.500000	-2.911158 
261.000000	-3.030971 
261.500000	-3.182517 
262.000000	-3.156600 
262.500000	-3.094667 
263.000000	-2.638239 
263.500000	-2.258971 
264.000000	-1.960321 
264.500000	-1.706505 
265.000000	-1.103815 
265.500000	-0.298229 
266.000000	0.491927  
266.500000	0.972624  
267.000000	0.959004  
267.500000	1.051381  
268.000000	0.807077  
268.500000	0.341235  
269.000000	-0.538759 
269.500000	-1.165421 
270.000000	-1.497565 
270.500000	-1.561588 
271.000000	-1.613434 
271.500000	-1.847215 
272.000000	-1.860578 
272.500000	-1.726877 
273.000000	-1.661394 
273.500000	-1.894982 
274.000000	-2.126568 
274.500000	-2.300834 
275.000000	-2.546287 
275.500000	-2.918012 
276.000000	-3.461722 
276.500000	-4.161736 
277.000000	-4.478045 
277.500000	-4.310383 
278.000000	-4.228237 
278.500000	-3.945281 
279.000000	-3.363297 
279.500000	-2.828393 
280.000000	-2.240715 
280.500000	-1.679995 
281.000000	-1.289489 
281.500000	-0.643469 
282.000000	0.195237  
282.500000	1.004103  
283.000000	1.909743  
283.500000	2.648052  
284.000000	2.860005  
284.500000	2.776766  
285.000000	2.489050  
285.500000	1.721456  
286.000000	1.181278  
286.500000	0.913914  
287.000000	0.775633  
287.500000	1.049421  
288.000000	1.405186  
288.500000	1.504311  
289.000000	1.309808  
289.500000	1.098317  
290.000000	0.324528  
290.500000	-0.424472 
291.000000	-1.275298 
291.500000	-2.101948 
292.000000	-2.379646 
292.500000	-2.366624 
293.000000	-2.318638 
293.500000	-2.131799 
294.000000	-1.303401 
294.500000	-0.664448 
295.000000	0.098027  
295.500000	0.653036  
296.000000	1.013311  
296.500000	1.372239  
297.000000	1.806719  
297.500000	1.863303  
298.000000	1.639697  
298.500000	1.481624  
299.000000	1.260907  
299.500000	1.146678  
300.000000	0.528846  
300.500000	-0.063941 
301.000000	-0.679595 
301.500000	-0.925660 
302.000000	-0.953182 
302.500000	-0.788094 
303.000000	-0.352009 
303.500000	0.285609  
304.000000	0.970441  
304.500000	1.062420  
305.000000	1.274605  
305.500000	1.220092  
306.000000	0.931351  
306.500000	0.595723  
307.000000	0.133381  
307.500000	-0.309317 
308.000000	-0.696276 
308.500000	-1.138974 
309.000000	-1.815916 
309.500000	-2.185906 
310.000000	-2.393980 
310.500000	-2.528823 
311.000000	-2.362498 
311.500000	-2.145004 
312.000000	-1.564833 
312.500000	-0.958932 
313.000000	-0.390652 
313.500000	0.107777  
314.000000	0.588493  
314.500000	0.853548  
315.000000	0.853510  
315.500000	0.863523  
316.000000	0.727091  
316.500000	0.632832  
317.000000	0.323134  
317.500000	-0.067608 
318.000000	-0.368688 
318.500000	-0.518900 
319.000000	-0.677293 
319.500000	-0.935918 
320.000000	-1.262881 
320.500000	-1.484844 
321.000000	-1.538183 
321.500000	-1.455255 
322.000000	-1.149250 
322.500000	-0.737582 
323.000000	-0.211657 
323.500000	0.308148  
324.000000	0.721908  
324.500000	0.764577  
325.000000	0.540551  
325.500000	0.131307  
326.000000	-0.220855 
326.500000	-0.360636 
327.000000	-0.333730 
327.500000	-0.253442 
328.000000	0.001285  
328.500000	0.391650  
329.000000	0.602917  
329.500000	0.632167  
330.000000	0.504252  
330.500000	0.249544  
331.000000	0.063027  
331.500000	0.016309  
332.000000	-0.061839 
332.500000	-0.065733 
333.000000	0.043476  
333.500000	0.064915  
334.000000	-0.027883 
334.500000	-0.092582 
335.000000	-0.300619 
335.500000	-0.549542 
336.000000	-0.625885 
336.500000	-0.664546 
337.000000	-0.583339 
337.500000	-0.354934 
338.000000	-0.132503 
338.500000	0.032624  
339.000000	0.284781  
339.500000	0.366744  
340.000000	0.322970  
340.500000	0.272367  
341.000000	0.173518  
341.500000	0.079499  
342.000000	0.070347  
342.500000	0.232665  
343.000000	0.390286  
343.500000	0.615242  
344.000000	0.710256  
344.500000	0.651553  
345.000000	0.568137  
345.500000	0.413736  
346.000000	0.312470  
346.500000	0.233743  
347.000000	0.308244  
347.500000	0.539760  
348.000000	0.842131  
348.500000	1.079719  
349.000000	1.173392  
349.500000	1.258565  
350.000000	1.167720  
350.500000	1.017732  
351.000000	0.772514  
351.500000	0.539415  
352.000000	0.437528  
352.500000	0.414628  
353.000000	0.532945  
353.500000	0.580755  
354.000000	0.757420  
354.500000	0.844333  
355.000000	0.974032  
355.500000	1.119985  
356.000000	1.199550  
356.500000	1.296917  
357.000000	1.367246  
357.500000	1.447995  
358.000000	1.445549  
358.500000	1.506278  
359.000000	1.474063  
359.500000	1.463915  
360.000000	1.386577  
360.500000	1.231554  
361.000000	1.021750  
361.500000	0.798180  
362.000000	0.566838  
362.500000	0.397704  
363.000000	0.363829  
363.500000	0.329325  
364.000000	0.387108  
364.500000	0.553985  
365.000000	0.753863  
365.500000	0.883510  
366.000000	0.977162  
366.500000	0.917873  
367.000000	0.866342  
367.500000	0.835053  
368.000000	0.724076  
368.500000	0.595923  
369.000000	0.554877  
369.500000	0.661754  
370.000000	0.781519  
370.500000	0.961262  
371.000000	1.102334  
371.500000	1.245437  
372.000000	1.357953  
372.500000	1.378459  
373.000000	1.299734  
373.500000	1.253736  
374.000000	1.283288  
374.500000	1.303052  
375.000000	1.409043  
375.500000	1.515376  
376.000000	1.580117  
376.500000	1.566047  
377.000000	1.486940  
377.500000	1.346006  
378.000000	1.179452  
378.500000	1.030414  
379.000000	0.878617  
379.500000	0.843846  
380.000000	0.919421  
380.500000	1.020166  
381.000000	1.094175  
381.500000	1.165585  
382.000000	1.221566  
382.500000	1.259450  
383.000000	1.260688  
383.500000	1.234294  
384.000000	1.235351  
384.500000	1.251739  
385.000000	1.267103  
385.500000	1.245602  
386.000000	1.224438  
386.500000	1.232250  
387.000000	1.269957  
387.500000	1.357574  
388.000000	1.459267  
388.500000	1.594918  
389.000000	1.770944  
389.500000	1.938839  
390.000000	2.065849  
390.500000	2.127959  
391.000000	2.114286  
391.500000	2.023068  
392.000000	1.893644  
392.500000	1.696601  
393.000000	1.531038  
393.500000	1.493640  
394.000000	1.503802  
394.500000	1.579338  
395.000000	1.663318  
395.500000	1.778536  
396.000000	1.837675  
396.500000	1.852160  
397.000000	1.742052  
397.500000	1.555967  
398.000000	1.402440  
398.500000	1.250227  
399.000000	1.136516  
399.500000	1.058401  
400.000000	1.065690  
400.500000	1.091173  
401.000000	1.149345  
401.500000	1.194987  
402.000000	1.252637  
402.500000	1.251804  
403.000000	1.204097  
403.500000	1.159954  
404.000000	1.109805  
404.500000	1.087051  
405.000000	1.040876  
405.500000	0.999763  
406.000000	0.974628  
406.500000	1.037975  
407.000000	1.036565  
407.500000	0.996770  
408.000000	0.956401  
408.500000	0.936437  
409.000000	0.948284  
409.500000	0.944090  
410.000000	0.904963  
410.500000	0.849778  
411.000000	0.907443  
411.500000	0.935472  
412.000000	0.934810  
412.500000	0.888556  
413.000000	0.799883  
413.500000	0.683931  
414.000000	0.559439  
414.500000	0.392731  
415.000000	0.204058  
415.500000	0.116142  
416.000000	0.051945  
416.500000	0.048262  
417.000000	0.056566  
417.500000	0.100700  
418.000000	0.156749  
418.500000	0.246709  
419.000000	0.310566  
419.500000	0.331159  
420.000000	0.337973  
420.500000	0.316548  
421.000000	0.308043  
421.500000	0.284777  
422.000000	0.273528  
422.500000	0.247532  
423.000000	0.227065  
423.500000	0.216815  
424.000000	0.222486  
424.500000	0.230879  
425.000000	0.253908  
425.500000	0.282978  
426.000000	0.288407  
426.500000	0.294303  
427.000000	0.286595  
427.500000	0.263659  
428.000000	0.259840  
428.500000	0.288482  
429.000000	0.320928  
429.500000	0.358338  
430.000000	0.398057  
430.500000	0.421193  
431.000000	0.432699  
431.500000	0.423499  
432.000000	0.388903  
432.500000	0.362137  
433.000000	0.337272  
433.500000	0.327721  
434.000000	0.331966  
434.500000	0.348316  
435.000000	0.362715  
435.500000	0.373649  
436.000000	0.363012  
436.500000	0.345732  
437.000000	0.339071  
437.500000	0.341571  
438.000000	0.350768  
438.500000	0.366478  
439.000000	0.375136  
439.500000	0.372799  
440.000000	0.355344  
440.500000	0.320008  
441.000000	0.281290  
441.500000	0.247707  
442.000000	0.218378  
442.500000	0.197075  
443.000000	0.202944  
443.500000	0.228734  
444.000000	0.260805  
444.500000	0.291406  

