PE FL                   SPECTRUM    ASCII       PEDS        1.60        
  -1
PMEF75~1
23/10/12
12:50:07.00
23/10/12
12:50:07.00


444.500000
1









LS55
35.00
5.00
5.00
SCAN
1
20
100
500
0
500
0
2
0
1
7
ON
500 450 
1 0 0
#HDR
-1
-1
#GR
NM

0.00002384185791015625
0.0
250.000000
0.500000
390
8
40.169881
-4.527148
#DATA
250.000000	-2.937000 
250.500000	-3.016656 
251.000000	-3.001597 
251.500000	-3.109231 
252.000000	-2.857891 
252.500000	-2.451217 
253.000000	-2.010837 
253.500000	-1.862305 
254.000000	-2.022394 
254.500000	-2.281561 
255.000000	-2.434777 
255.500000	-2.638610 
256.000000	-3.025456 
256.500000	-3.268152 
257.000000	-3.389953 
257.500000	-3.332130 
258.000000	-3.173479 
258.500000	-3.085685 
259.000000	-3.178135 
259.500000	-3.007875 
260.000000	-2.532703 
260.500000	-2.057988 
261.000000	-1.587716 
261.500000	-1.322392 
262.000000	-1.272165 
262.500000	-1.214139 
263.000000	-1.220412 
263.500000	-1.562213 
264.000000	-2.028808 
264.500000	-2.452309 
265.000000	-2.631235 
265.500000	-2.582954 
266.000000	-2.730164 
266.500000	-2.894496 
267.000000	-3.046512 
267.500000	-2.873822 
268.000000	-2.885571 
268.500000	-3.072342 
269.000000	-3.340193 
269.500000	-3.247939 
270.000000	-2.819417 
270.500000	-2.646797 
271.000000	-2.358782 
271.500000	-2.062483 
272.000000	-1.691242 
272.500000	-1.479324 
273.000000	-1.539276 
273.500000	-2.093470 
274.000000	-2.706085 
274.500000	-3.087676 
275.000000	-3.803483 
275.500000	-4.316878 
276.000000	-4.527148 
276.500000	-4.518782 
277.000000	-4.316707 
277.500000	-3.961473 
278.000000	-3.550128 
278.500000	-3.145189 
279.000000	-2.605448 
279.500000	-2.451851 
280.000000	-2.144001 
280.500000	-1.700034 
281.000000	-1.265617 
281.500000	-0.922980 
282.000000	-0.606837 
282.500000	-0.155291 
283.000000	0.197387  
283.500000	0.447613  
284.000000	0.004356  
284.500000	-0.566788 
285.000000	-1.426485 
285.500000	-2.342754 
286.000000	-3.058301 
286.500000	-3.576712 
287.000000	-3.715021 
287.500000	-3.315639 
288.000000	-2.500432 
288.500000	-1.854345 
289.000000	-1.254874 
289.500000	-1.210125 
290.000000	-1.554271 
290.500000	-1.812410 
291.000000	-2.104018 
291.500000	-2.334271 
292.000000	-2.293131 
292.500000	-2.045799 
293.000000	-1.614717 
293.500000	-1.140600 
294.000000	-0.802222 
294.500000	-1.021634 
295.000000	-1.000102 
295.500000	-1.141402 
296.000000	-1.348665 
296.500000	-1.352642 
297.000000	-1.500539 
297.500000	-1.414663 
298.000000	-1.509694 
298.500000	-1.458303 
299.000000	-1.585761 
299.500000	-1.445243 
300.000000	-0.886814 
300.500000	-0.078513 
301.000000	1.186719  
301.500000	2.494843  
302.000000	3.951424  
302.500000	5.354377  
303.000000	6.860040  
303.500000	8.056908  
304.000000	8.880078  
304.500000	10.062192 
305.000000	11.382312 
305.500000	12.858155 
306.000000	14.098903 
306.500000	15.156389 
307.000000	16.136033 
307.500000	17.039425 
308.000000	17.641280 
308.500000	17.952413 
309.000000	18.614166 
309.500000	19.687074 
310.000000	21.167157 
310.500000	22.948258 
311.000000	24.714205 
311.500000	26.430563 
312.000000	28.012258 
312.500000	28.821731 
313.000000	29.463222 
313.500000	29.792688 
314.000000	29.766274 
314.500000	29.716049 
315.000000	29.891500 
315.500000	30.606957 
316.000000	31.308857 
316.500000	32.037341 
317.000000	32.521501 
317.500000	33.410443 
318.000000	34.714866 
318.500000	35.952101 
319.000000	36.982261 
319.500000	37.887681 
320.000000	38.968061 
320.500000	39.752880 
321.000000	40.169881 
321.500000	39.941646 
322.000000	39.613564 
322.500000	39.186375 
323.000000	38.506004 
323.500000	37.647009 
324.000000	36.465559 
324.500000	34.994051 
325.000000	33.494021 
325.500000	32.132297 
326.000000	30.808907 
326.500000	29.738063 
327.000000	28.705554 
327.500000	27.781068 
328.000000	27.248483 
328.500000	26.894484 
329.000000	26.119237 
329.500000	25.200077 
330.000000	24.486351 
330.500000	23.628795 
331.000000	23.080240 
331.500000	22.478747 
332.000000	21.664989 
332.500000	21.033738 
333.000000	20.396683 
333.500000	19.515322 
334.000000	18.598019 
334.500000	17.837090 
335.000000	17.056383 
335.500000	16.437759 
336.000000	15.804869 
336.500000	15.063114 
337.000000	14.466838 
337.500000	13.777066 
338.000000	13.091638 
338.500000	12.543193 
339.000000	12.342936 
339.500000	12.192253 
340.000000	12.112723 
340.500000	11.974365 
341.000000	11.729475 
341.500000	11.551804 
342.000000	11.336994 
342.500000	11.108785 
343.000000	11.049826 
343.500000	11.104598 
344.000000	11.298703 
344.500000	11.668139 
345.000000	11.830108 
345.500000	11.841977 
346.000000	11.723840 
346.500000	11.375472 
347.000000	10.993786 
347.500000	10.697083 
348.000000	10.372623 
348.500000	10.101578 
349.000000	10.157540 
349.500000	10.143358 
350.000000	10.118936 
350.500000	10.136168 
351.000000	10.139451 
351.500000	10.184773 
352.000000	10.405873 
352.500000	10.579381 
353.000000	10.641590 
353.500000	10.753100 
354.000000	10.686718 
354.500000	10.505446 
355.000000	10.370217 
355.500000	10.233015 
356.000000	10.269789 
356.500000	10.572190 
357.000000	10.899179 
357.500000	11.341972 
358.000000	11.737878 
358.500000	12.037264 
359.000000	12.071322 
359.500000	12.026085 
360.000000	11.742568 
360.500000	11.458896 
361.000000	11.357124 
361.500000	11.280056 
362.000000	11.398092 
362.500000	11.561716 
363.000000	11.947598 
363.500000	12.231593 
364.000000	12.597417 
364.500000	12.830864 
365.000000	12.995926 
365.500000	13.165920 
366.000000	13.281825 
366.500000	13.383517 
367.000000	13.448962 
367.500000	13.716007 
368.000000	14.004789 
368.500000	14.365613 
369.000000	14.806535 
369.500000	15.066255 
370.000000	15.181479 
370.500000	15.259496 
371.000000	15.258543 
371.500000	15.272365 
372.000000	15.396495 
372.500000	15.612987 
373.000000	15.860379 
373.500000	16.223360 
374.000000	16.465491 
374.500000	16.583848 
375.000000	16.638766 
375.500000	16.563052 
376.000000	16.516736 
376.500000	16.443800 
377.000000	16.600124 
377.500000	16.736872 
378.000000	16.905148 
378.500000	17.051753 
379.000000	17.227810 
379.500000	17.421515 
380.000000	17.481458 
380.500000	17.504032 
381.000000	17.457578 
381.500000	17.699172 
382.000000	18.026413 
382.500000	18.202508 
383.000000	18.272397 
383.500000	18.294706 
384.000000	18.207162 
384.500000	17.921056 
385.000000	17.518124 
385.500000	17.011815 
386.000000	16.632471 
386.500000	16.416786 
387.000000	16.295393 
387.500000	16.296284 
388.000000	16.514218 
388.500000	16.846651 
389.000000	17.118020 
389.500000	17.378995 
390.000000	17.695767 
390.500000	17.843167 
391.000000	17.925680 
391.500000	17.902255 
392.000000	17.893241 
392.500000	17.902533 
393.000000	17.798285 
393.500000	17.514066 
394.000000	17.195677 
394.500000	17.056435 
395.000000	16.973983 
395.500000	16.908294 
396.000000	16.822436 
396.500000	16.861342 
397.000000	16.938503 
397.500000	16.906653 
398.000000	16.763446 
398.500000	16.576204 
399.000000	16.457797 
399.500000	16.366078 
400.000000	16.276166 
400.500000	16.124445 
401.000000	16.162833 
401.500000	16.376784 
402.000000	16.539738 
402.500000	16.675993 
403.000000	16.784192 
403.500000	16.833947 
404.000000	16.785657 
404.500000	16.565354 
405.000000	16.161005 
405.500000	15.771754 
406.000000	15.504427 
406.500000	15.267325 
407.000000	15.174414 
407.500000	15.113288 
408.000000	15.165075 
408.500000	15.335275 
409.000000	15.442140 
409.500000	15.449868 
410.000000	15.412094 
410.500000	15.400496 
411.000000	15.336729 
411.500000	15.251969 
412.000000	15.023829 
412.500000	14.850775 
413.000000	14.716695 
413.500000	14.475297 
414.000000	14.170131 
414.500000	13.891979 
415.000000	13.669134 
415.500000	13.538326 
416.000000	13.433372 
416.500000	13.251372 
417.000000	13.121003 
417.500000	13.082640 
418.000000	12.970696 
418.500000	12.792040 
419.000000	12.632911 
419.500000	12.525786 
420.000000	12.455088 
420.500000	12.352618 
421.000000	12.235027 
421.500000	12.118342 
422.000000	12.127031 
422.500000	12.083838 
423.000000	11.962044 
423.500000	11.806701 
424.000000	11.683498 
424.500000	11.468256 
425.000000	11.215788 
425.500000	10.992413 
426.000000	10.767248 
426.500000	10.706811 
427.000000	10.655971 
427.500000	10.561394 
428.000000	10.424920 
428.500000	10.382320 
429.000000	10.314614 
429.500000	10.250163 
430.000000	10.192877 
430.500000	10.122395 
431.000000	10.179916 
431.500000	10.277820 
432.000000	10.322988 
432.500000	10.236835 
433.000000	10.088034 
433.500000	9.856059  
434.000000	9.569474  
434.500000	9.299162  
435.000000	9.071832  
435.500000	8.926198  
436.000000	8.898585  
436.500000	8.974635  
437.000000	9.053802  
437.500000	9.109759  
438.000000	9.144412  
438.500000	9.118243  
439.000000	9.079518  
439.500000	9.063208  
440.000000	9.028004  
440.500000	8.988840  
441.000000	8.992847  
441.500000	8.984944  
442.000000	8.964039  
442.500000	8.968848  
443.000000	8.937202  
443.500000	8.856204  
444.000000	8.809570  
444.500000	8.760627  

