PE FL                   SPECTRUM    ASCII       PEDS        1.60        
  -1
PMEF15~1
23/10/12
12:46:04.00
23/10/12
12:46:04.00


444.500000
1









LS55
5.00
5.00
5.00
SCAN
1
20
100
500
0
500
0
2
0
1
7
ON
500 450 
1 0 0
#HDR
-1
-1
#GR
NM

0.00002384185791015625
0.0
250.000000
0.500000
390
8
51.235720
-4.815596
#DATA
250.000000	-1.485000 
250.500000	-2.808402 
251.000000	-3.711091 
251.500000	-4.371369 
252.000000	-4.671447 
252.500000	-4.652241 
253.000000	-4.468743 
253.500000	-4.074703 
254.000000	-3.655288 
254.500000	-3.444635 
255.000000	-3.486579 
255.500000	-3.446775 
256.000000	-3.492559 
256.500000	-3.510423 
257.000000	-3.599889 
257.500000	-3.828240 
258.000000	-3.891047 
258.500000	-3.818913 
259.000000	-3.558498 
259.500000	-3.307175 
260.000000	-2.888527 
260.500000	-2.453380 
261.000000	-1.987000 
261.500000	-1.731692 
262.000000	-1.890824 
262.500000	-2.377530 
263.000000	-3.152527 
263.500000	-3.957055 
264.000000	-4.562627 
264.500000	-4.815596 
265.000000	-4.642748 
265.500000	-3.843565 
266.000000	-2.730132 
266.500000	-1.619342 
267.000000	-0.619917 
267.500000	-0.241786 
268.000000	-0.210604 
268.500000	-0.319753 
269.000000	-0.469201 
269.500000	-0.752786 
270.000000	-0.874797 
270.500000	-0.867963 
271.000000	-0.928408 
271.500000	-0.663390 
272.000000	-0.902192 
272.500000	-1.295116 
273.000000	-1.621276 
273.500000	-1.779066 
274.000000	-1.954954 
274.500000	-1.985174 
275.000000	-1.958648 
275.500000	-2.212845 
276.000000	-2.130810 
276.500000	-2.568543 
277.000000	-3.255447 
277.500000	-3.855737 
278.000000	-4.102160 
278.500000	-4.191865 
279.000000	-3.853164 
279.500000	-3.255699 
280.000000	-2.806631 
280.500000	-2.176567 
281.000000	-1.859123 
281.500000	-1.915666 
282.000000	-1.980122 
282.500000	-1.956567 
283.000000	-2.023792 
283.500000	-1.891037 
284.000000	-1.750214 
284.500000	-1.695521 
285.000000	-1.570469 
285.500000	-1.507985 
286.000000	-1.573567 
286.500000	-1.610216 
287.000000	-1.653738 
287.500000	-1.770381 
288.000000	-1.749058 
288.500000	-1.776263 
289.000000	-1.915483 
289.500000	-2.290728 
290.000000	-2.729960 
290.500000	-3.114903 
291.000000	-3.357968 
291.500000	-3.822733 
292.000000	-4.033929 
292.500000	-3.989663 
293.000000	-3.788513 
293.500000	-3.442023 
294.000000	-3.199453 
294.500000	-2.970381 
295.000000	-2.343611 
295.500000	-1.495093 
296.000000	-0.925581 
296.500000	-0.346563 
297.000000	0.090163  
297.500000	0.434742  
298.000000	0.604627  
298.500000	0.482895  
299.000000	-0.215013 
299.500000	-1.040897 
300.000000	-1.654802 
300.500000	-2.270692 
301.000000	-2.588947 
301.500000	-2.785186 
302.000000	-2.400136 
302.500000	-1.721523 
303.000000	-0.656972 
303.500000	0.162634  
304.000000	0.467295  
304.500000	0.425887  
305.000000	0.140073  
305.500000	-0.335616 
306.000000	-1.151540 
306.500000	-1.767568 
307.000000	-2.234001 
307.500000	-2.176867 
308.000000	-1.884573 
308.500000	-1.683090 
309.000000	-1.596324 
309.500000	-1.514765 
310.000000	-1.422116 
310.500000	-1.256289 
311.000000	-0.788273 
311.500000	-0.253169 
312.000000	0.353954  
312.500000	0.825008  
313.000000	1.253155  
313.500000	1.598824  
314.000000	1.861164  
314.500000	1.785083  
315.000000	1.664489  
315.500000	1.818516  
316.000000	2.366050  
316.500000	2.818338  
317.000000	3.097388  
317.500000	3.060661  
318.000000	2.972418  
318.500000	2.887774  
319.000000	2.733911  
319.500000	2.522356  
320.000000	2.371201  
320.500000	2.858210  
321.000000	3.299776  
321.500000	3.822664  
322.000000	4.118118  
322.500000	4.424046  
323.000000	4.684106  
323.500000	5.105825  
324.000000	5.525438  
324.500000	5.866963  
325.000000	6.606343  
325.500000	7.201572  
326.000000	7.805439  
326.500000	8.349817  
327.000000	8.879259  
327.500000	9.276537  
328.000000	9.654723  
328.500000	9.875465  
329.000000	10.010815 
329.500000	10.148497 
330.000000	10.312240 
330.500000	10.460449 
331.000000	10.720615 
331.500000	10.972261 
332.000000	11.417311 
332.500000	11.951275 
333.000000	12.184145 
333.500000	12.371318 
334.000000	12.247449 
334.500000	12.000369 
335.000000	11.650023 
335.500000	11.399746 
336.000000	11.032396 
336.500000	10.916048 
337.000000	11.012488 
337.500000	11.072172 
338.000000	11.174463 
338.500000	11.068091 
339.000000	10.879278 
339.500000	10.501985 
340.000000	10.186980 
340.500000	9.861741  
341.000000	9.722951  
341.500000	9.741536  
342.000000	9.831226  
342.500000	10.048686 
343.000000	10.390023 
343.500000	10.722568 
344.000000	10.823016 
344.500000	11.022523 
345.000000	11.229239 
345.500000	11.514684 
346.000000	11.732262 
346.500000	11.921246 
347.000000	12.208321 
347.500000	12.581291 
348.000000	12.896849 
348.500000	12.791091 
349.000000	12.591626 
349.500000	12.309903 
350.000000	12.188552 
350.500000	12.130840 
351.000000	12.290656 
351.500000	12.873359 
352.000000	13.790120 
352.500000	15.034964 
353.000000	16.345946 
353.500000	17.640096 
354.000000	18.674826 
354.500000	19.732787 
355.000000	20.458878 
355.500000	21.207617 
356.000000	22.147233 
356.500000	23.078371 
357.000000	24.073357 
357.500000	25.289006 
358.000000	26.579313 
358.500000	27.586779 
359.000000	28.543968 
359.500000	28.802348 
360.000000	28.971200 
360.500000	29.187238 
361.000000	29.358432 
361.500000	29.381240 
362.000000	29.584747 
362.500000	30.107539 
363.000000	30.769367 
363.500000	31.813773 
364.000000	32.557556 
364.500000	33.298220 
365.000000	33.923877 
365.500000	34.411047 
366.000000	34.551549 
366.500000	34.373373 
367.000000	34.049707 
367.500000	33.643223 
368.000000	33.358466 
368.500000	32.907127 
369.000000	32.557928 
369.500000	32.213638 
370.000000	32.044305 
370.500000	32.067200 
371.000000	32.158937 
371.500000	32.178965 
372.000000	32.314106 
372.500000	32.604671 
373.000000	32.993089 
373.500000	33.448067 
374.000000	33.873367 
374.500000	34.339900 
375.000000	34.985647 
375.500000	35.667072 
376.000000	36.168814 
376.500000	36.713677 
377.000000	37.150927 
377.500000	37.635061 
378.000000	38.032475 
378.500000	38.298156 
379.000000	38.357630 
379.500000	38.217280 
380.000000	38.055995 
380.500000	37.880111 
381.000000	37.793624 
381.500000	37.447720 
382.000000	37.041836 
382.500000	36.689442 
383.000000	36.611316 
383.500000	36.502512 
384.000000	36.090960 
384.500000	35.408490 
385.000000	34.917108 
385.500000	34.541072 
386.000000	34.057776 
386.500000	33.347543 
387.000000	32.446717 
387.500000	31.673612 
388.000000	30.895995 
388.500000	29.966727 
389.000000	28.602068 
389.500000	27.299338 
390.000000	25.961840 
390.500000	24.761922 
391.000000	23.478625 
391.500000	22.158949 
392.000000	20.939301 
392.500000	19.773820 
393.000000	18.881819 
393.500000	17.990949 
394.000000	17.287695 
394.500000	16.819455 
395.000000	16.558174 
395.500000	16.484405 
396.000000	16.549365 
396.500000	16.704406 
397.000000	16.733100 
397.500000	16.729142 
398.000000	16.538070 
398.500000	16.146890 
399.000000	15.785866 
399.500000	15.354088 
400.000000	14.847302 
400.500000	14.299989 
401.000000	13.952071 
401.500000	13.694765 
402.000000	13.552112 
402.500000	13.472844 
403.000000	13.311708 
403.500000	13.229549 
404.000000	13.120977 
404.500000	12.986083 
405.000000	12.668890 
405.500000	12.381357 
406.000000	12.081115 
406.500000	11.730164 
407.000000	11.348060 
407.500000	11.013870 
408.000000	10.717123 
408.500000	10.545313 
409.000000	10.444333 
409.500000	10.360928 
410.000000	10.383363 
410.500000	10.548578 
411.000000	10.671675 
411.500000	10.720598 
412.000000	10.779855 
412.500000	10.802150 
413.000000	10.856342 
413.500000	10.880720 
414.000000	10.831667 
414.500000	10.856535 
415.000000	11.014056 
415.500000	11.186473 
416.000000	11.381320 
416.500000	11.515600 
417.000000	11.605921 
417.500000	11.820592 
418.000000	12.044038 
418.500000	12.205798 
419.000000	12.346292 
419.500000	12.538120 
420.000000	12.751901 
420.500000	13.054216 
421.000000	13.275309 
421.500000	13.438646 
422.000000	13.706663 
422.500000	14.022681 
423.000000	14.375521 
423.500000	14.801544 
424.000000	15.312020 
424.500000	15.941852 
425.000000	16.762935 
425.500000	17.593948 
426.000000	18.350295 
426.500000	18.983952 
427.000000	19.322357 
427.500000	19.555080 
428.000000	19.688311 
428.500000	19.747098 
429.000000	19.862699 
429.500000	20.087390 
430.000000	20.543149 
430.500000	21.354689 
431.000000	22.432267 
431.500000	23.570018 
432.000000	24.886616 
432.500000	26.547911 
433.000000	28.372479 
433.500000	30.260149 
434.000000	32.143584 
434.500000	34.016853 
435.000000	35.793386 
435.500000	37.423532 
436.000000	38.632433 
436.500000	39.348947 
437.000000	39.835781 
437.500000	40.068619 
438.000000	40.086977 
438.500000	40.019871 
439.000000	40.064225 
439.500000	40.234199 
440.000000	40.645928 
440.500000	41.263800 
441.000000	42.051755 
441.500000	43.150721 
442.000000	44.369133 
442.500000	45.696075 
443.000000	47.211264 
443.500000	48.763714 
444.000000	50.081339 
444.500000	51.235720 

