PE FL                   SPECTRUM    ASCII       PEDS        1.60        
  -1
PMEF35~1
23/10/12
12:47:25.00
23/10/12
12:47:25.00


444.500000
1









LS55
15.00
5.00
5.00
SCAN
1
20
100
500
0
500
0
2
0
1
7
ON
500 450 
1 0 0
#HDR
-1
-1
#GR
NM

0.00002384185791015625
0.0
250.000000
0.500000
390
8
14.115653
-5.000000
#DATA
250.000000	-5.000000 
250.500000	-4.269083 
251.000000	-3.733441 
251.500000	-3.524395 
252.000000	-3.550250 
252.500000	-3.366963 
253.000000	-3.087692 
253.500000	-2.828469 
254.000000	-2.465364 
254.500000	-1.939310 
255.000000	-1.249346 
255.500000	-0.387799 
256.000000	0.157229  
256.500000	0.281174  
257.000000	0.532201  
257.500000	0.879926  
258.000000	0.970615  
258.500000	0.661268  
259.000000	0.058935  
259.500000	-0.873855 
260.000000	-1.657840 
260.500000	-2.457037 
261.000000	-3.396577 
261.500000	-4.486505 
262.000000	-4.812957 
262.500000	-4.483285 
263.000000	-3.805042 
263.500000	-2.967526 
264.000000	-2.523230 
264.500000	-1.648935 
265.000000	-0.309737 
265.500000	1.208500  
266.000000	1.932918  
266.500000	2.456736  
267.000000	2.702500  
267.500000	2.633873  
268.000000	2.488863  
268.500000	1.559945  
269.000000	0.314280  
269.500000	-0.731281 
270.000000	-1.044277 
270.500000	-1.517993 
271.000000	-1.726303 
271.500000	-1.619203 
272.000000	-1.439788 
272.500000	-0.775469 
273.000000	-0.237545 
273.500000	-0.240869 
274.000000	-0.601108 
274.500000	-0.728571 
275.000000	-1.183821 
275.500000	-1.356687 
276.000000	-1.353164 
276.500000	-1.439169 
277.000000	-1.316241 
277.500000	-0.921966 
278.000000	-0.757113 
278.500000	-0.810140 
279.000000	-0.436199 
279.500000	-0.523869 
280.000000	-0.763786 
280.500000	-0.844320 
281.000000	-0.975835 
281.500000	-1.075930 
282.000000	-1.076676 
282.500000	-1.169945 
283.000000	-1.424160 
283.500000	-1.317445 
284.000000	-1.404494 
284.500000	-1.629416 
285.000000	-1.367426 
285.500000	-0.891915 
286.000000	-0.438312 
286.500000	-0.099920 
287.000000	0.279327  
287.500000	0.336076  
288.000000	0.274820  
288.500000	-0.039510 
289.000000	-1.001017 
289.500000	-1.724379 
290.000000	-2.438835 
290.500000	-3.140731 
291.000000	-3.721936 
291.500000	-3.976378 
292.000000	-3.867854 
292.500000	-3.385319 
293.000000	-2.807289 
293.500000	-2.556291 
294.000000	-2.335493 
294.500000	-2.304676 
295.000000	-2.437483 
295.500000	-2.540117 
296.000000	-2.892035 
296.500000	-3.235718 
297.000000	-3.328667 
297.500000	-3.210346 
298.000000	-3.027603 
298.500000	-2.815675 
299.000000	-2.480728 
299.500000	-2.151347 
300.000000	-1.337795 
300.500000	-0.638647 
301.000000	-0.184855 
301.500000	0.271894  
302.000000	0.655035  
302.500000	0.879096  
303.000000	0.656836  
303.500000	0.308496  
304.000000	-0.369709 
304.500000	-0.857860 
305.000000	-1.278379 
305.500000	-1.740249 
306.000000	-1.904247 
306.500000	-1.758706 
307.000000	-1.487287 
307.500000	-1.261272 
308.000000	-0.740643 
308.500000	-0.275578 
309.000000	0.320496  
309.500000	0.684355  
310.000000	1.070417  
310.500000	1.443876  
311.000000	2.020869  
311.500000	2.578783  
312.000000	3.140331  
312.500000	3.791374  
313.000000	4.538096  
313.500000	5.585457  
314.000000	6.367265  
314.500000	7.332572  
315.000000	7.921891  
315.500000	8.631326  
316.000000	9.064964  
316.500000	9.311602  
317.000000	9.320322  
317.500000	9.010453  
318.000000	8.837333  
318.500000	8.586947  
319.000000	8.955152  
319.500000	9.497939  
320.000000	10.213213 
320.500000	10.968411 
321.000000	11.698979 
321.500000	12.346371 
322.000000	12.561404 
322.500000	12.610047 
323.000000	12.300578 
323.500000	12.066958 
324.000000	12.057733 
324.500000	12.208005 
325.000000	12.415545 
325.500000	12.641429 
326.000000	13.050039 
326.500000	13.359827 
327.000000	13.822901 
327.500000	14.115653 
328.000000	14.097243 
328.500000	14.015654 
329.000000	13.809167 
329.500000	13.547176 
330.000000	13.110302 
330.500000	12.620458 
331.000000	12.022761 
331.500000	11.744743 
332.000000	11.777285 
332.500000	11.782201 
333.000000	11.736945 
333.500000	11.707622 
334.000000	11.649956 
334.500000	11.518357 
335.000000	11.232144 
335.500000	10.833183 
336.000000	10.507576 
336.500000	10.383572 
337.000000	10.263536 
337.500000	10.221468 
338.000000	10.186656 
338.500000	10.137778 
339.000000	10.151910 
339.500000	9.972262  
340.000000	9.782430  
340.500000	9.499103  
341.000000	9.257682  
341.500000	8.933688  
342.000000	8.620105  
342.500000	8.373388  
343.000000	8.018964  
343.500000	7.733248  
344.000000	7.359697  
344.500000	7.131934  
345.000000	6.977015  
345.500000	6.910751  
346.000000	6.841098  
346.500000	6.783167  
347.000000	6.789532  
347.500000	6.585382  
348.000000	6.228273  
348.500000	5.695048  
349.000000	5.202158  
349.500000	4.702351  
350.000000	4.346743  
350.500000	4.135845  
351.000000	4.120008  
351.500000	4.400177  
352.000000	4.772781  
352.500000	5.106510  
353.000000	5.417372  
353.500000	5.664137  
354.000000	5.808162  
354.500000	5.892031  
355.000000	5.904957  
355.500000	5.880969  
356.000000	5.924536  
356.500000	5.992468  
357.000000	6.037452  
357.500000	6.070952  
358.000000	6.136102  
358.500000	6.251539  
359.000000	6.326131  
359.500000	6.393331  
360.000000	6.478146  
360.500000	6.554839  
361.000000	6.531700  
361.500000	6.410787  
362.000000	6.135765  
362.500000	5.768736  
363.000000	5.485663  
363.500000	5.280535  
364.000000	5.221351  
364.500000	5.263619  
365.000000	5.425535  
365.500000	5.572388  
366.000000	5.700833  
366.500000	5.643342  
367.000000	5.450835  
367.500000	5.219751  
368.000000	4.966309  
368.500000	4.814412  
369.000000	4.776553  
369.500000	4.842595  
370.000000	4.949390  
370.500000	5.138898  
371.000000	5.325366  
371.500000	5.555690  
372.000000	5.839123  
372.500000	5.966401  
373.000000	6.005941  
373.500000	6.028767  
374.000000	5.920348  
374.500000	5.698303  
375.000000	5.418944  
375.500000	5.077166  
376.000000	4.780695  
376.500000	4.772828  
377.000000	4.801943  
377.500000	4.884053  
378.000000	5.019388  
378.500000	5.107624  
379.000000	5.138387  
379.500000	5.127778  
380.000000	5.051525  
380.500000	4.926697  
381.000000	4.917261  
381.500000	4.905023  
382.000000	4.915343  
382.500000	4.968806  
383.000000	5.041586  
383.500000	5.121767  
384.000000	5.184428  
384.500000	5.240919  
385.000000	5.269248  
385.500000	5.259057  
386.000000	5.177168  
386.500000	5.043813  
387.000000	4.934103  
387.500000	4.864544  
388.000000	4.862160  
388.500000	4.870588  
389.000000	4.915746  
389.500000	4.998528  
390.000000	5.111207  
390.500000	5.239189  
391.000000	5.282749  
391.500000	5.280609  
392.000000	5.315233  
392.500000	5.363338  
393.000000	5.353837  
393.500000	5.313430  
394.000000	5.251902  
394.500000	5.186118  
395.000000	5.143598  
395.500000	5.106129  
396.000000	5.068888  
396.500000	5.132306  
397.000000	5.265163  
397.500000	5.404727  
398.000000	5.518143  
398.500000	5.648251  
399.000000	5.744137  
399.500000	5.847178  
400.000000	5.962140  
400.500000	6.020196  
401.000000	6.077523  
401.500000	6.114306  
402.000000	6.153192  
402.500000	6.075345  
403.000000	5.945825  
403.500000	5.765972  
404.000000	5.563600  
404.500000	5.428711  
405.000000	5.308148  
405.500000	5.301415  
406.000000	5.374725  
406.500000	5.613980  
407.000000	5.867100  
407.500000	6.095635  
408.000000	6.312528  
408.500000	6.424187  
409.000000	6.512112  
409.500000	6.517351  
410.000000	6.455737  
410.500000	6.356241  
411.000000	6.297776  
411.500000	6.226133  
412.000000	6.131363  
412.500000	6.094009  
413.000000	6.048842  
413.500000	6.041020  
414.000000	6.057527  
414.500000	6.059344  
415.000000	6.087910  
415.500000	6.120871  
416.000000	6.158007  
416.500000	6.180440  
417.000000	6.222659  
417.500000	6.236306  
418.000000	6.235291  
418.500000	6.238839  
419.000000	6.187529  
419.500000	6.127552  
420.000000	6.031081  
420.500000	5.873242  
421.000000	5.704848  
421.500000	5.530446  
422.000000	5.351894  
422.500000	5.217612  
423.000000	5.102521  
423.500000	5.015907  
424.000000	4.978434  
424.500000	4.955343  
425.000000	4.905933  
425.500000	4.853152  
426.000000	4.788951  
426.500000	4.717889  
427.000000	4.662327  
427.500000	4.631068  
428.000000	4.627675  
428.500000	4.681782  
429.000000	4.745834  
429.500000	4.800519  
430.000000	4.860780  
430.500000	4.849432  
431.000000	4.774008  
431.500000	4.658239  
432.000000	4.544445  
432.500000	4.436997  
433.000000	4.363294  
433.500000	4.281696  
434.000000	4.232081  
434.500000	4.230981  
435.000000	4.224004  
435.500000	4.178594  
436.000000	4.119002  
436.500000	4.073926  
437.000000	4.051182  
437.500000	4.048754  
438.000000	4.046819  
438.500000	4.055001  
439.000000	4.079034  
439.500000	4.114041  
440.000000	4.130018  
440.500000	4.125465  
441.000000	4.113449  
441.500000	4.092361  
442.000000	4.084942  
442.500000	4.083069  
443.000000	4.067251  
443.500000	4.051166  
444.000000	4.038518  
444.500000	4.030760  

