PE FL                   SPECTRUM    ASCII       PEDS        1.60        
  -1
PMEF55~1
23/10/12
12:48:46.00
23/10/12
12:48:46.00


444.500000
1









LS55
25.00
5.00
5.00
SCAN
1
20
100
500
0
500
0
2
0
1
7
ON
500 450 
1 0 0
#HDR
-1
-1
#GR
NM

0.00002384185791015625
0.0
250.000000
0.500000
390
8
28.199354
-4.725304
#DATA
250.000000	-3.542000 
250.500000	-2.809618 
251.000000	-1.968848 
251.500000	-1.032561 
252.000000	-0.299222 
252.500000	0.478964  
253.000000	1.239393  
253.500000	2.054174  
254.000000	2.250347  
254.500000	1.901649  
255.000000	1.426402  
255.500000	1.052970  
256.000000	0.472866  
256.500000	-0.291201 
257.000000	-1.157311 
257.500000	-1.613982 
258.000000	-1.573227 
258.500000	-1.219238 
259.000000	-1.028634 
259.500000	-1.054679 
260.000000	-0.724063 
260.500000	-0.471784 
261.000000	-0.304637 
261.500000	-0.649619 
262.000000	-0.655608 
262.500000	-0.679835 
263.000000	-0.470430 
263.500000	-0.201958 
264.000000	-0.350574 
264.500000	-0.632004 
265.000000	-1.194277 
265.500000	-1.654786 
266.000000	-2.662664 
266.500000	-3.503812 
267.000000	-4.280753 
267.500000	-4.725304 
268.000000	-4.642513 
268.500000	-4.154663 
269.000000	-3.347260 
269.500000	-2.600634 
270.000000	-1.640984 
270.500000	-1.043984 
271.000000	-0.798141 
271.500000	-0.965561 
272.000000	-1.568651 
272.500000	-2.439584 
273.000000	-3.186083 
273.500000	-3.523763 
274.000000	-3.507182 
274.500000	-2.953291 
275.000000	-2.029429 
275.500000	-0.949552 
276.000000	-0.140512 
276.500000	0.080446  
277.000000	-0.154517 
277.500000	-0.683760 
278.000000	-1.400514 
278.500000	-2.151349 
279.000000	-2.712330 
279.500000	-2.961074 
280.000000	-2.883042 
280.500000	-2.723521 
281.000000	-2.686887 
281.500000	-2.589835 
282.000000	-2.533773 
282.500000	-2.706135 
283.000000	-3.023191 
283.500000	-3.372642 
284.000000	-3.512566 
284.500000	-3.603464 
285.000000	-3.622117 
285.500000	-3.811932 
286.000000	-3.835099 
286.500000	-3.600236 
287.000000	-3.408638 
287.500000	-3.334237 
288.000000	-3.276444 
288.500000	-2.912141 
289.000000	-2.736030 
289.500000	-2.358731 
290.000000	-2.084027 
290.500000	-1.823978 
291.000000	-1.404833 
291.500000	-0.997728 
292.000000	-1.203430 
292.500000	-1.638974 
293.000000	-1.699591 
293.500000	-1.630023 
294.000000	-1.062686 
294.500000	-0.301356 
295.000000	0.600922  
295.500000	1.611382  
296.000000	2.610618  
296.500000	2.621653  
297.000000	2.120256  
297.500000	1.246129  
298.000000	0.280362  
298.500000	-0.485514 
299.000000	-1.138278 
299.500000	-1.406112 
300.000000	-1.447974 
300.500000	-0.752463 
301.000000	-0.343329 
301.500000	-0.071597 
302.000000	-0.367041 
302.500000	-0.312727 
303.000000	0.156779  
303.500000	0.761517  
304.000000	1.644636  
304.500000	2.453048  
305.000000	3.779297  
305.500000	5.203347  
306.000000	6.492890  
306.500000	7.043935  
307.000000	7.516909  
307.500000	8.021243  
308.000000	8.657599  
308.500000	9.291026  
309.000000	9.711550  
309.500000	10.417062 
310.000000	11.538827 
310.500000	12.553278 
311.000000	13.265878 
311.500000	13.752772 
312.000000	13.838045 
312.500000	14.121326 
313.000000	14.411970 
313.500000	14.848465 
314.000000	15.466464 
314.500000	16.481404 
315.000000	17.404733 
315.500000	18.418786 
316.000000	19.372131 
316.500000	19.863525 
317.000000	20.222002 
317.500000	20.296782 
318.000000	20.487511 
318.500000	20.989123 
319.000000	21.894143 
319.500000	22.887990 
320.000000	23.860650 
320.500000	24.932686 
321.000000	26.044498 
321.500000	27.122702 
322.000000	27.745056 
322.500000	28.072389 
323.000000	28.199354 
323.500000	28.111436 
324.000000	27.971690 
324.500000	27.391308 
325.000000	26.522909 
325.500000	25.920524 
326.000000	25.560473 
326.500000	25.109203 
327.000000	24.932659 
327.500000	24.630025 
328.000000	24.237373 
328.500000	23.999860 
329.000000	23.550401 
329.500000	22.590349 
330.000000	21.827314 
330.500000	21.283734 
331.000000	20.776465 
331.500000	20.819892 
332.000000	20.583596 
332.500000	20.248832 
333.000000	19.943758 
333.500000	19.454723 
334.000000	18.319187 
334.500000	17.036499 
335.000000	15.775745 
335.500000	14.510629 
336.000000	13.745347 
336.500000	12.933709 
337.000000	12.384847 
337.500000	12.215311 
338.000000	12.226045 
338.500000	12.049628 
339.000000	11.721136 
339.500000	11.408924 
340.000000	11.004555 
340.500000	10.574569 
341.000000	10.039375 
341.500000	9.565629  
342.000000	9.380473  
342.500000	9.350164  
343.000000	9.357277  
343.500000	9.347831  
344.000000	9.587042  
344.500000	9.762118  
345.000000	9.766263  
345.500000	9.622645  
346.000000	9.420505  
346.500000	9.266018  
347.000000	9.093943  
347.500000	8.800098  
348.000000	8.449795  
348.500000	8.361522  
349.000000	8.286401  
349.500000	8.234442  
350.000000	8.148561  
350.500000	8.102596  
351.000000	8.219183  
351.500000	8.453522  
352.000000	8.621869  
352.500000	8.705035  
353.000000	8.917245  
353.500000	9.004219  
354.000000	8.984908  
354.500000	8.802265  
355.000000	8.574788  
355.500000	8.363116  
356.000000	8.297970  
356.500000	8.214137  
357.000000	8.098402  
357.500000	8.120471  
358.000000	8.177493  
358.500000	8.273591  
359.000000	8.378062  
359.500000	8.464419  
360.000000	8.474445  
360.500000	8.454576  
361.000000	8.310689  
361.500000	8.024811  
362.000000	7.728395  
362.500000	7.451776  
363.000000	7.247241  
363.500000	7.152503  
364.000000	7.242241  
364.500000	7.446274  
365.000000	7.627179  
365.500000	7.793327  
366.000000	7.891679  
366.500000	7.909112  
367.000000	7.817826  
367.500000	7.670549  
368.000000	7.511662  
368.500000	7.442368  
369.000000	7.489869  
369.500000	7.507066  
370.000000	7.608559  
370.500000	7.711222  
371.000000	7.845167  
371.500000	7.982098  
372.000000	8.168484  
372.500000	8.345439  
373.000000	8.492923  
373.500000	8.579406  
374.000000	8.551538  
374.500000	8.473197  
375.000000	8.312217  
375.500000	8.093788  
376.000000	7.908864  
376.500000	7.847177  
377.000000	7.890492  
377.500000	7.966242  
378.000000	8.164095  
378.500000	8.384174  
379.000000	8.551826  
379.500000	8.614213  
380.000000	8.624649  
380.500000	8.660366  
381.000000	8.854121  
381.500000	9.209405  
382.000000	9.541998  
382.500000	10.006489 
383.000000	10.443500 
383.500000	10.669127 
384.000000	10.583558 
384.500000	10.317719 
385.000000	9.829226  
385.500000	9.357683  
386.000000	9.043502  
386.500000	8.769441  
387.000000	8.809396  
387.500000	9.089797  
388.000000	9.482573  
388.500000	9.873989  
389.000000	10.324071 
389.500000	10.599899 
390.000000	10.747013 
390.500000	10.898328 
391.000000	10.922885 
391.500000	10.908978 
392.000000	10.910255 
392.500000	10.819825 
393.000000	10.757651 
393.500000	10.816533 
394.000000	10.909853 
394.500000	10.896508 
395.000000	11.003053 
395.500000	11.108841 
396.000000	11.126871 
396.500000	11.142740 
397.000000	11.042212 
397.500000	10.927006 
398.000000	10.847812 
398.500000	10.823036 
399.000000	10.658643 
399.500000	10.527363 
400.000000	10.512294 
400.500000	10.541019 
401.000000	10.684960 
401.500000	10.914626 
402.000000	11.153469 
402.500000	11.472479 
403.000000	11.812872 
403.500000	12.049703 
404.000000	12.115016 
404.500000	12.031997 
405.000000	11.826895 
405.500000	11.514106 
406.000000	11.232779 
406.500000	10.996551 
407.000000	10.831842 
407.500000	10.761664 
408.000000	10.807030 
408.500000	10.866174 
409.000000	10.871292 
409.500000	10.781912 
410.000000	10.578723 
410.500000	10.324328 
411.000000	10.120261 
411.500000	9.895568  
412.000000	9.752034  
412.500000	9.678318  
413.000000	9.743035  
413.500000	9.887211  
414.000000	10.031422 
414.500000	10.130366 
415.000000	10.144659 
415.500000	10.158077 
416.000000	10.045129 
416.500000	9.932406  
417.000000	9.743391  
417.500000	9.527470  
418.000000	9.323565  
418.500000	9.136929  
419.000000	9.002952  
419.500000	8.921889  
420.000000	8.866421  
420.500000	8.813708  
421.000000	8.827439  
421.500000	8.834175  
422.000000	8.800578  
422.500000	8.673127  
423.000000	8.503780  
423.500000	8.316115  
424.000000	8.153919  
424.500000	7.989802  
425.000000	7.834875  
425.500000	7.745320  
426.000000	7.717068  
426.500000	7.718345  
427.000000	7.684094  
427.500000	7.619905  
428.000000	7.533122  
428.500000	7.417541  
429.000000	7.284036  
429.500000	7.165927  
430.000000	7.062911  
430.500000	6.960722  
431.000000	6.876688  
431.500000	6.794975  
432.000000	6.750999  
432.500000	6.682365  
433.000000	6.555215  
433.500000	6.429120  
434.000000	6.349838  
434.500000	6.313123  
435.000000	6.260269  
435.500000	6.224819  
436.000000	6.186037  
436.500000	6.208746  
437.000000	6.233779  
437.500000	6.220107  
438.000000	6.209261  
438.500000	6.209195  
439.000000	6.227844  
439.500000	6.215862  
440.000000	6.170752  
440.500000	6.085338  
441.000000	6.032108  
441.500000	6.005584  
442.000000	5.976874  
442.500000	6.003784  
443.000000	6.060825  
443.500000	6.135671  
444.000000	6.231930  
444.500000	6.312685  

