PE FL                   SPECTRUM    ASCII       PEDS        1.60        
  -1
PMEF85~1
23/10/12
12:50:47.00
23/10/12
12:50:47.00


444.500000
1









LS55
40.00
5.00
5.00
SCAN
1
20
100
500
0
500
0
2
0
1
7
ON
500 450 
1 0 0
#HDR
-1
-1
#GR
NM

0.00002384185791015625
0.0
250.000000
0.500000
390
8
42.493006
-4.167542
#DATA
250.000000	-1.394000 
250.500000	-1.908960 
251.000000	-2.329978 
251.500000	-2.123018 
252.000000	-1.870577 
252.500000	-1.598198 
253.000000	-1.207559 
253.500000	-0.873619 
254.000000	-0.872883 
254.500000	-0.875440 
255.000000	-1.258979 
255.500000	-1.400601 
256.000000	-1.123226 
256.500000	-0.707930 
257.000000	-0.457337 
257.500000	0.021637  
258.000000	-0.112025 
258.500000	-0.369173 
259.000000	-0.516501 
259.500000	-1.034532 
260.000000	-1.225261 
260.500000	-1.050676 
261.000000	-0.537150 
261.500000	-0.102247 
262.000000	0.494559  
262.500000	0.194235  
263.000000	-0.429201 
263.500000	-1.060920 
264.000000	-1.763550 
264.500000	-2.336035 
265.000000	-2.873966 
265.500000	-2.932634 
266.000000	-2.478193 
266.500000	-1.676693 
267.000000	-1.019820 
267.500000	-0.506177 
268.000000	-0.110668 
268.500000	0.578783  
269.000000	1.268279  
269.500000	1.406846  
270.000000	1.291036  
270.500000	0.992513  
271.000000	0.236360  
271.500000	-0.623254 
272.000000	-1.531773 
272.500000	-2.531130 
273.000000	-3.086623 
273.500000	-3.075464 
274.000000	-2.994836 
274.500000	-2.782056 
275.000000	-2.621501 
275.500000	-2.640405 
276.000000	-2.589495 
276.500000	-2.613869 
277.000000	-3.101753 
277.500000	-3.834513 
278.000000	-4.167542 
278.500000	-4.037486 
279.000000	-3.503061 
279.500000	-3.284018 
280.000000	-2.731451 
280.500000	-1.813677 
281.000000	-0.735841 
281.500000	-0.247325 
282.000000	-0.383499 
282.500000	-0.494376 
283.000000	-0.418888 
283.500000	-0.149579 
284.000000	-0.656506 
284.500000	-1.105077 
285.000000	-1.160837 
285.500000	-0.748003 
286.000000	-0.605501 
286.500000	-0.753721 
287.000000	-1.080329 
287.500000	-1.247230 
288.000000	-0.840349 
288.500000	-0.863115 
289.000000	-1.044129 
289.500000	-1.047006 
290.000000	-0.917743 
290.500000	-0.887968 
291.000000	-0.959726 
291.500000	-1.381386 
292.000000	-2.140655 
292.500000	-2.372458 
293.000000	-2.413562 
293.500000	-2.458719 
294.000000	-2.046532 
294.500000	-1.502207 
295.000000	-0.803872 
295.500000	0.130136  
296.000000	1.002750  
296.500000	1.600428  
297.000000	2.125163  
297.500000	2.620382  
298.000000	2.917433  
298.500000	3.417254  
299.000000	3.835478  
299.500000	4.289979  
300.000000	4.846660  
300.500000	5.375556  
301.000000	5.949485  
301.500000	6.497540  
302.000000	7.394720  
302.500000	8.424762  
303.000000	9.864194  
303.500000	11.486343 
304.000000	13.236482 
304.500000	15.228307 
305.000000	17.126080 
305.500000	19.118892 
306.000000	20.820466 
306.500000	22.390052 
307.000000	23.517560 
307.500000	24.292283 
308.000000	24.259172 
308.500000	23.817952 
309.000000	23.460865 
309.500000	23.001009 
310.000000	22.544864 
310.500000	22.858051 
311.000000	23.957916 
311.500000	25.743820 
312.000000	27.799105 
312.500000	29.902602 
313.000000	32.081324 
313.500000	34.433924 
314.000000	36.349396 
314.500000	37.336887 
315.000000	38.413130 
315.500000	39.460849 
316.000000	40.627799 
316.500000	41.231878 
317.000000	41.584076 
317.500000	41.760927 
318.000000	42.174548 
318.500000	42.493006 
319.000000	42.053003 
319.500000	41.567453 
320.000000	41.302081 
320.500000	41.305768 
321.000000	40.695391 
321.500000	39.885277 
322.000000	39.000657 
322.500000	38.172207 
323.000000	37.154230 
323.500000	35.818919 
324.000000	34.177582 
324.500000	33.019034 
325.000000	32.055344 
325.500000	31.109088 
326.000000	30.357548 
326.500000	29.965115 
327.000000	29.968733 
327.500000	29.857763 
328.000000	29.826780 
328.500000	29.193334 
329.000000	28.582849 
329.500000	27.682985 
330.000000	26.402136 
330.500000	24.761063 
331.000000	23.128111 
331.500000	21.815972 
332.000000	20.649871 
332.500000	19.946451 
333.000000	19.270346 
333.500000	18.919685 
334.000000	18.651428 
334.500000	18.308628 
335.000000	17.802783 
335.500000	17.201183 
336.000000	16.603533 
336.500000	15.967611 
337.000000	15.577047 
337.500000	15.182632 
338.000000	14.860079 
338.500000	14.565345 
339.000000	14.086096 
339.500000	13.491684 
340.000000	12.945303 
340.500000	12.425430 
341.000000	12.062798 
341.500000	12.016118 
342.000000	12.307139 
342.500000	12.950021 
343.000000	13.733708 
343.500000	14.267436 
344.000000	14.505734 
344.500000	14.651221 
345.000000	14.533815 
345.500000	14.195518 
346.000000	13.745598 
346.500000	13.398686 
347.000000	13.426364 
347.500000	13.848036 
348.000000	14.348517 
348.500000	14.730363 
349.000000	15.032266 
349.500000	15.032301 
350.000000	14.724468 
350.500000	14.075919 
351.000000	13.458657 
351.500000	13.108794 
352.000000	13.088464 
352.500000	13.357260 
353.000000	13.890004 
353.500000	14.585423 
354.000000	15.292678 
354.500000	15.593678 
355.000000	15.590804 
355.500000	15.438774 
356.000000	15.302100 
356.500000	15.243027 
357.000000	15.172728 
357.500000	15.356928 
358.000000	15.825226 
358.500000	16.601597 
359.000000	17.132940 
359.500000	17.492732 
360.000000	17.673941 
360.500000	17.767624 
361.000000	17.848201 
361.500000	17.675724 
362.000000	17.564353 
362.500000	17.437348 
363.000000	17.581855 
363.500000	17.841252 
364.000000	18.286674 
364.500000	18.553720 
365.000000	18.821911 
365.500000	19.120036 
366.000000	19.230375 
366.500000	19.321917 
367.000000	19.199314 
367.500000	18.867840 
368.000000	18.686801 
368.500000	18.730831 
369.000000	18.722721 
369.500000	18.780568 
370.000000	18.921900 
370.500000	19.107663 
371.000000	19.475376 
371.500000	19.899496 
372.000000	20.053513 
372.500000	20.204630 
373.000000	20.567240 
373.500000	20.890067 
374.000000	21.169145 
374.500000	21.271629 
375.000000	21.346896 
375.500000	21.384501 
376.000000	21.561108 
376.500000	21.617233 
377.000000	21.513620 
377.500000	21.480931 
378.000000	21.548604 
378.500000	21.687028 
379.000000	21.591842 
379.500000	21.408557 
380.000000	21.241406 
380.500000	21.191016 
381.000000	21.190523 
381.500000	21.134506 
382.000000	21.152125 
382.500000	21.258597 
383.000000	21.492334 
383.500000	21.638015 
384.000000	21.736382 
384.500000	21.849216 
385.000000	21.931687 
385.500000	22.050985 
386.000000	22.067881 
386.500000	22.011639 
387.000000	21.853149 
387.500000	21.633977 
388.000000	21.305786 
388.500000	21.014257 
389.000000	20.847242 
389.500000	20.799550 
390.000000	20.861639 
390.500000	21.030941 
391.000000	21.304044 
391.500000	21.594402 
392.000000	21.745409 
392.500000	21.740858 
393.000000	21.698903 
393.500000	21.611464 
394.000000	21.587801 
394.500000	21.421696 
395.000000	21.217636 
395.500000	21.034287 
396.000000	20.911863 
396.500000	20.714999 
397.000000	20.393719 
397.500000	20.092922 
398.000000	19.839751 
398.500000	19.848192 
399.000000	19.746291 
399.500000	19.655779 
400.000000	19.624289 
400.500000	19.713370 
401.000000	19.794713 
401.500000	19.799797 
402.000000	19.771585 
402.500000	19.697630 
403.000000	19.726583 
403.500000	19.603478 
404.000000	19.432660 
404.500000	19.225104 
405.000000	19.096214 
405.500000	19.006951 
406.000000	18.859795 
406.500000	18.728367 
407.000000	18.714944 
407.500000	18.742240 
408.000000	18.678911 
408.500000	18.633423 
409.000000	18.529017 
409.500000	18.463240 
410.000000	18.341819 
410.500000	18.122049 
411.000000	17.839325 
411.500000	17.660375 
412.000000	17.520487 
412.500000	17.312768 
413.000000	17.163875 
413.500000	16.999868 
414.000000	16.928921 
414.500000	16.984079 
415.000000	17.010468 
415.500000	16.945416 
416.000000	16.883167 
416.500000	16.860695 
417.000000	16.694282 
417.500000	16.447508 
418.000000	16.102464 
418.500000	15.692599 
419.000000	15.385156 
419.500000	15.136495 
420.000000	14.907492 
420.500000	14.672622 
421.000000	14.612672 
421.500000	14.556984 
422.000000	14.539516 
422.500000	14.463603 
423.000000	14.260707 
423.500000	14.086860 
424.000000	13.940344 
424.500000	13.801906 
425.000000	13.610753 
425.500000	13.497354 
426.000000	13.374048 
426.500000	13.269869 
427.000000	13.121892 
427.500000	12.892065 
428.000000	12.604940 
428.500000	12.347170 
429.000000	12.107348 
429.500000	11.839538 
430.000000	11.662653 
430.500000	11.541153 
431.000000	11.534976 
431.500000	11.601547 
432.000000	11.682861 
432.500000	11.736149 
433.000000	11.807364 
433.500000	11.828869 
434.000000	11.755494 
434.500000	11.637332 
435.000000	11.451092 
435.500000	11.246834 
436.000000	11.046303 
436.500000	10.892071 
437.000000	10.737785 
437.500000	10.674615 
438.000000	10.661133 
438.500000	10.653124 
439.000000	10.646685 
439.500000	10.621029 
440.000000	10.551983 
440.500000	10.437303 
441.000000	10.319210 
441.500000	10.198702 
442.000000	10.139447 
442.500000	10.117668 
443.000000	10.133683 
443.500000	10.100688 
444.000000	10.092303 
444.500000	10.054687 

