PE FL                   SPECTRUM    ASCII       PEDS        1.60        
  -1
PMEF65~1
23/10/12
12:49:27.00
23/10/12
12:49:27.00


444.500000
1









LS55
30.00
5.00
5.00
SCAN
1
20
100
500
0
500
0
2
0
1
7
ON
500 450 
1 0 0
#HDR
-1
-1
#GR
NM

0.00002384185791015625
0.0
250.000000
0.500000
390
8
34.917919
-5.597740
#DATA
250.000000	-4.999999 
250.500000	-3.886505 
251.000000	-3.009618 
251.500000	-2.781303 
252.000000	-2.333763 
252.500000	-1.605298 
253.000000	-1.120375 
253.500000	-0.817945 
254.000000	-0.588897 
254.500000	-0.357028 
255.000000	-0.140611 
255.500000	-0.076108 
256.000000	-0.941452 
256.500000	-1.831454 
257.000000	-2.782126 
257.500000	-3.635760 
258.000000	-4.406533 
258.500000	-5.129174 
259.000000	-5.597740 
259.500000	-5.373536 
260.000000	-4.443783 
260.500000	-3.956520 
261.000000	-3.032249 
261.500000	-2.252635 
262.000000	-1.386709 
262.500000	-0.519664 
263.000000	0.127402  
263.500000	0.270243  
264.000000	0.090048  
264.500000	-0.136691 
265.000000	-0.602733 
265.500000	-0.750992 
266.000000	-0.941416 
266.500000	-1.040471 
267.000000	-1.033878 
267.500000	-0.940328 
268.000000	-1.261784 
268.500000	-1.861066 
269.000000	-2.661225 
269.500000	-3.284804 
270.000000	-3.556327 
270.500000	-3.359951 
271.000000	-2.807696 
271.500000	-2.081118 
272.000000	-1.140623 
272.500000	-0.420866 
273.000000	-0.126205 
273.500000	-0.708551 
274.000000	-1.480820 
274.500000	-2.431042 
275.000000	-3.221633 
275.500000	-3.813418 
276.000000	-4.279495 
276.500000	-4.222063 
277.000000	-4.021112 
277.500000	-3.555044 
278.000000	-3.009789 
278.500000	-2.521903 
279.000000	-1.979855 
279.500000	-1.359996 
280.000000	-0.656901 
280.500000	-0.279798 
281.000000	0.271674  
281.500000	0.724167  
282.000000	0.897169  
282.500000	1.244221  
283.000000	1.161464  
283.500000	0.935249  
284.000000	0.510464  
284.500000	0.150399  
285.000000	-0.541185 
285.500000	-1.020114 
286.000000	-1.424389 
286.500000	-2.050796 
287.000000	-2.441870 
287.500000	-2.743331 
288.000000	-3.014355 
288.500000	-3.375703 
289.000000	-3.717441 
289.500000	-4.052580 
290.000000	-3.981353 
290.500000	-3.499660 
291.000000	-2.975259 
291.500000	-2.539536 
292.000000	-2.127236 
292.500000	-1.760464 
293.000000	-1.669774 
293.500000	-1.765576 
294.000000	-2.041277 
294.500000	-2.197052 
295.000000	-2.024944 
295.500000	-1.613605 
296.000000	-1.503064 
296.500000	-1.636959 
297.000000	-1.576905 
297.500000	-1.644076 
298.000000	-1.701959 
298.500000	-1.695486 
299.000000	-1.356501 
299.500000	-0.702005 
300.000000	0.290627  
300.500000	1.247442  
301.000000	2.029995  
301.500000	3.029407  
302.000000	3.799250  
302.500000	4.138018  
303.000000	4.446414  
303.500000	5.083337  
304.000000	6.007509  
304.500000	6.847796  
305.000000	7.451763  
305.500000	8.062471  
306.000000	8.833261  
306.500000	9.822926  
307.000000	10.696435 
307.500000	11.543167 
308.000000	12.743834 
308.500000	14.411827 
309.000000	15.846673 
309.500000	16.903229 
310.000000	17.660459 
310.500000	18.115838 
311.000000	18.588452 
311.500000	19.078237 
312.000000	19.519776 
312.500000	19.644613 
313.000000	20.048064 
313.500000	20.648421 
314.000000	21.428085 
314.500000	22.442346 
315.000000	23.336485 
315.500000	24.279034 
316.000000	25.486072 
316.500000	26.779668 
317.000000	27.622541 
317.500000	28.381217 
318.000000	28.975846 
318.500000	29.415585 
319.000000	29.757321 
319.500000	29.868050 
320.000000	30.059855 
320.500000	30.698090 
321.000000	31.542156 
321.500000	32.117554 
322.000000	32.913493 
322.500000	33.703338 
323.000000	34.279959 
323.500000	34.787201 
324.000000	34.917919 
324.500000	34.530323 
325.000000	34.223862 
325.500000	33.359750 
326.000000	31.783312 
326.500000	30.252504 
327.000000	28.762989 
327.500000	27.491502 
328.000000	26.606256 
328.500000	25.807526 
329.000000	24.827602 
329.500000	24.508456 
330.000000	24.030751 
330.500000	23.271118 
331.000000	22.507276 
331.500000	21.609285 
332.000000	20.655415 
332.500000	19.929101 
333.000000	19.080258 
333.500000	17.845356 
334.000000	17.130068 
334.500000	16.358019 
335.000000	15.411108 
335.500000	14.597546 
336.000000	13.880171 
336.500000	13.397581 
337.000000	13.308442 
337.500000	13.312912 
338.000000	13.079729 
338.500000	13.100247 
339.000000	13.066318 
339.500000	12.710837 
340.000000	12.215077 
340.500000	11.596990 
341.000000	10.974333 
341.500000	10.462036 
342.000000	10.103030 
342.500000	9.780106  
343.000000	9.704889  
343.500000	9.859175  
344.000000	9.991465  
344.500000	10.180979 
345.000000	10.335527 
345.500000	10.353083 
346.000000	10.265123 
346.500000	10.035591 
347.000000	9.787513  
347.500000	9.543307  
348.000000	9.348995  
348.500000	9.185624  
349.000000	9.111163  
349.500000	9.107690  
350.000000	9.051533  
350.500000	8.951146  
351.000000	8.765684  
351.500000	8.646036  
352.000000	8.521272  
352.500000	8.460793  
353.000000	8.488480  
353.500000	8.602452  
354.000000	8.794185  
354.500000	8.978146  
355.000000	9.182477  
355.500000	9.317572  
356.000000	9.465379  
356.500000	9.481185  
357.000000	9.403784  
357.500000	9.332468  
358.000000	9.262713  
358.500000	9.224161  
359.000000	9.203467  
359.500000	9.125281  
360.000000	9.118567  
360.500000	9.237826  
361.000000	9.393505  
361.500000	9.550670  
362.000000	9.730383  
362.500000	9.759551  
363.000000	9.765407  
363.500000	9.826284  
364.000000	9.685416  
364.500000	9.519246  
365.000000	9.498883  
365.500000	9.544321  
366.000000	9.602495  
366.500000	9.774469  
367.000000	9.822549  
367.500000	9.928677  
368.000000	10.234385 
368.500000	10.482478 
369.000000	10.655154 
369.500000	10.835895 
370.000000	11.058667 
370.500000	11.152894 
371.000000	11.184083 
371.500000	10.976186 
372.000000	10.815429 
372.500000	10.758353 
373.000000	10.738157 
373.500000	10.730022 
374.000000	10.792241 
374.500000	10.939379 
375.000000	11.111767 
375.500000	11.247098 
376.000000	11.232319 
376.500000	11.353307 
377.000000	11.625608 
377.500000	12.041744 
378.000000	12.487245 
378.500000	12.925564 
379.000000	13.263944 
379.500000	13.453307 
380.000000	13.542307 
380.500000	13.405888 
381.000000	13.182543 
381.500000	13.025073 
382.000000	12.985705 
382.500000	12.990934 
383.000000	13.136339 
383.500000	13.271248 
384.000000	13.278131 
384.500000	13.264630 
385.000000	13.330175 
385.500000	13.322618 
386.000000	13.244197 
386.500000	13.261612 
387.000000	13.306884 
387.500000	13.411907 
388.000000	13.564219 
388.500000	13.625622 
389.000000	13.618814 
389.500000	13.733028 
390.000000	13.905105 
390.500000	14.007097 
391.000000	14.189563 
391.500000	14.347783 
392.000000	14.485357 
392.500000	14.601902 
393.000000	14.615608 
393.500000	14.475541 
394.000000	14.283449 
394.500000	14.187663 
395.000000	14.036897 
395.500000	14.000894 
396.000000	14.026530 
396.500000	14.105409 
397.000000	14.186219 
397.500000	14.205347 
398.000000	14.137565 
398.500000	13.961685 
399.000000	13.838366 
399.500000	13.720580 
400.000000	13.680498 
400.500000	13.699007 
401.000000	13.837948 
401.500000	14.043089 
402.000000	14.184301 
402.500000	14.212665 
403.000000	14.133756 
403.500000	14.016384 
404.000000	13.899762 
404.500000	13.798099 
405.000000	13.705979 
405.500000	13.767206 
406.000000	13.936673 
406.500000	14.056248 
407.000000	14.108171 
407.500000	14.057176 
408.000000	13.866724 
408.500000	13.580703 
409.000000	13.257639 
409.500000	12.876691 
410.000000	12.585667 
410.500000	12.466086 
411.000000	12.341220 
411.500000	12.319075 
412.000000	12.332145 
412.500000	12.376230 
413.000000	12.388154 
413.500000	12.436910 
414.000000	12.399897 
414.500000	12.330298 
415.000000	12.272005 
415.500000	12.172820 
416.000000	12.114018 
416.500000	12.020473 
417.000000	11.829490 
417.500000	11.551326 
418.000000	11.311907 
418.500000	11.081464 
419.000000	10.867548 
419.500000	10.662004 
420.000000	10.509575 
420.500000	10.400471 
421.000000	10.313937 
421.500000	10.145442 
422.000000	9.929311  
422.500000	9.730371  
423.000000	9.563748  
423.500000	9.431086  
424.000000	9.287815  
424.500000	9.157684  
425.000000	9.035059  
425.500000	9.009247  
426.000000	9.007171  
426.500000	9.006233  
427.000000	9.008769  
427.500000	9.035369  
428.000000	9.066783  
428.500000	9.090559  
429.000000	9.056805  
429.500000	8.943270  
430.000000	8.792120  
430.500000	8.608693  
431.000000	8.401823  
431.500000	8.229468  
432.000000	8.095352  
432.500000	8.018015  
433.000000	8.020097  
433.500000	8.026886  
434.000000	7.992885  
434.500000	7.968876  
435.000000	7.955646  
435.500000	7.912725  
436.000000	7.905947  
436.500000	7.918417  
437.000000	7.925916  
437.500000	7.980114  
438.000000	8.063364  
438.500000	8.106003  
439.000000	8.134190  
439.500000	8.133815  
440.000000	8.083883  
440.500000	8.038399  
441.000000	7.988382  
441.500000	7.860976  
442.000000	7.710976  
442.500000	7.605491  
443.000000	7.505262  
443.500000	7.419857  
444.000000	7.371142  
444.500000	7.352364  

