PE FL                   SPECTRUM    ASCII       PEDS        1.60        
  -1
QUENCH~4
23/10/11
13:56:06.00
23/10/11
13:56:06.00


424.500000
1









LS55
316.00
5.00
5.00
SCAN
1
16
100
100
0
100
0
1
0
1
7
ON
430 316 
1 0 0
#HDR
-1
-1
#GR
NM

0.00002384185791015625
0.0
330.000000
0.500000
190
8
104.816701
7.724999
#DATA
330.000000	7.724999   
330.500000	9.403752   
331.000000	10.919616  
331.500000	12.295374  
332.000000	13.477769  
332.500000	14.432012  
333.000000	15.302200  
333.500000	16.138271  
334.000000	16.938905  
334.500000	17.827810  
335.000000	18.815084  
335.500000	19.699802  
336.000000	20.742041  
336.500000	21.939865  
337.000000	23.261847  
337.500000	24.863167  
338.000000	26.805803  
338.500000	29.095427  
339.000000	31.653095  
339.500000	34.593667  
340.000000	37.658229  
340.500000	40.878353  
341.000000	44.174806  
341.500000	47.334142  
342.000000	50.321710  
342.500000	53.078646  
343.000000	55.701745  
343.500000	58.004796  
344.000000	60.191331  
344.500000	62.238819  
345.000000	64.375446  
345.500000	66.739084  
346.000000	69.249732  
346.500000	71.869116  
347.000000	74.402416  
347.500000	76.922459  
348.000000	79.308059  
348.500000	81.425109  
349.000000	83.214571  
349.500000	84.820248  
350.000000	86.298895  
350.500000	87.812731  
351.000000	89.426434  
351.500000	90.994115  
352.000000	92.579057  
352.500000	94.244333  
353.000000	95.892804  
353.500000	97.465459  
354.000000	98.921859  
354.500000	100.168552 
355.000000	101.253797 
355.500000	102.008131 
356.000000	102.428994 
356.500000	102.535219 
357.000000	102.597468 
357.500000	102.718366 
358.000000	102.963026 
358.500000	103.370290 
359.000000	103.889912 
359.500000	104.433894 
360.000000	104.769292 
360.500000	104.816701 
361.000000	104.518968 
361.500000	104.074765 
362.000000	103.515336 
362.500000	102.836941 
363.000000	102.017983 
363.500000	101.232797 
364.000000	100.400039 
364.500000	99.312019  
365.000000	98.180460  
365.500000	96.995987  
366.000000	95.947866  
366.500000	95.189089  
367.000000	94.701301  
367.500000	94.439857  
368.000000	94.300943  
368.500000	94.058227  
369.000000	93.422243  
369.500000	92.453647  
370.000000	91.331728  
370.500000	90.092701  
371.000000	88.676364  
371.500000	87.293056  
372.000000	86.001659  
372.500000	84.642732  
373.000000	83.270749  
373.500000	81.837621  
374.000000	80.435910  
374.500000	79.415052  
375.000000	78.675718  
375.500000	78.039477  
376.000000	77.482296  
376.500000	77.091283  
377.000000	76.551635  
377.500000	75.794978  
378.000000	74.890048  
378.500000	73.727974  
379.000000	72.582554  
379.500000	71.484510  
380.000000	70.481908  
380.500000	69.532870  
381.000000	68.634695  
381.500000	67.750499  
382.000000	66.841305  
382.500000	65.942150  
383.000000	65.056075  
383.500000	64.269860  
384.000000	63.480082  
384.500000	62.846539  
385.000000	62.145953  
385.500000	61.240212  
386.000000	60.191358  
386.500000	58.934456  
387.000000	57.414678  
387.500000	55.827402  
388.000000	54.192302  
388.500000	52.481159  
389.000000	51.057079  
389.500000	49.829628  
390.000000	48.740904  
390.500000	47.933434  
391.000000	47.291613  
391.500000	46.552935  
392.000000	45.880300  
392.500000	45.173685  
393.000000	44.406997  
393.500000	43.666615  
394.000000	42.863691  
394.500000	42.154458  
395.000000	41.550797  
395.500000	40.976293  
396.000000	40.237022  
396.500000	39.503268  
397.000000	38.610836  
397.500000	37.715422  
398.000000	36.718057  
398.500000	35.647050  
399.000000	34.558149  
399.500000	33.481976  
400.000000	32.505764  
400.500000	31.631588  
401.000000	30.864067  
401.500000	29.949866  
402.000000	29.298976  
402.500000	28.812549  
403.000000	28.383501  
403.500000	27.922840  
404.000000	27.427190  
404.500000	26.845250  
405.000000	26.366686  
405.500000	25.908677  
406.000000	25.223182  
406.500000	24.615804  
407.000000	24.171377  
407.500000	23.827049  
408.000000	23.507161  
408.500000	23.277646  
409.000000	22.992988  
409.500000	22.850113  
410.000000	22.730134  
410.500000	22.396226  
411.000000	22.097082  
411.500000	21.891162  
412.000000	21.631900  
412.500000	21.312728  
413.000000	21.032484  
413.500000	20.740451  
414.000000	20.536885  
414.500000	20.357785  
415.000000	20.008190  
415.500000	19.679216  
416.000000	19.465942  
416.500000	19.233300  
417.000000	18.981338  
417.500000	18.674736  
418.000000	18.349683  
418.500000	18.102900  
419.000000	17.946206  
419.500000	17.632840  
420.000000	17.260227  
420.500000	17.055913  
421.000000	16.930686  
421.500000	16.847544  
422.000000	16.774530  
422.500000	16.645843  
423.000000	16.552398  
423.500000	16.548357  
424.000000	16.455725  
424.500000	16.164805  

