PE FL                   SPECTRUM    ASCII       PEDS        1.60        
  -1
QU7BED~1
23/10/11
14:03:03.00
23/10/11
14:03:03.00


424.500000
1









LS55
316.00
5.00
5.00
SCAN
1
16
100
100
0
100
0
1
0
1
7
ON
430 316 
1 0 0
#HDR
-1
-1
#GR
NM

0.00002384185791015625
0.0
330.000000
0.500000
190
8
104.627966
5.581000
#DATA
330.000000	5.581000   
330.500000	7.842421   
331.000000	9.873339   
331.500000	11.740817  
332.000000	13.316600  
332.500000	14.657761  
333.000000	15.687258  
333.500000	16.547469  
334.000000	17.169334  
334.500000	17.665391  
335.000000	18.235531  
335.500000	18.952987  
336.000000	19.860728  
336.500000	21.020116  
337.000000	22.571411  
337.500000	24.507927  
338.000000	26.816067  
338.500000	29.420831  
339.000000	31.942525  
339.500000	34.319184  
340.000000	36.790207  
340.500000	39.112052  
341.000000	41.400226  
341.500000	43.627377  
342.000000	46.097190  
342.500000	48.695775  
343.000000	51.500075  
343.500000	54.350320  
344.000000	57.062840  
344.500000	59.769379  
345.000000	62.294956  
345.500000	64.779098  
346.000000	67.069460  
346.500000	69.497904  
347.000000	71.840967  
347.500000	74.196022  
348.000000	76.653765  
348.500000	79.066382  
349.000000	81.463976  
349.500000	83.705882  
350.000000	85.925736  
350.500000	87.968906  
351.000000	89.840975  
351.500000	91.545982  
352.000000	93.140313  
352.500000	94.624933  
353.000000	95.945999  
353.500000	97.158763  
354.000000	98.196455  
354.500000	99.065607  
355.000000	99.994750  
355.500000	100.770327 
356.000000	101.472507 
356.500000	102.174372 
357.000000	102.843669 
357.500000	103.588778 
358.000000	104.208693 
358.500000	104.546186 
359.000000	104.627966 
359.500000	104.484773 
360.000000	104.065309 
360.500000	103.444834 
361.000000	102.675151 
361.500000	101.843856 
362.000000	101.482180 
362.500000	101.413622 
363.000000	101.459171 
363.500000	101.694646 
364.000000	101.932354 
364.500000	102.276829 
365.000000	102.492606 
365.500000	102.167508 
366.000000	101.190675 
366.500000	99.866914  
367.000000	98.373559  
367.500000	96.634162  
368.000000	94.922222  
368.500000	93.114806  
369.000000	91.496339  
369.500000	90.276383  
370.000000	89.261351  
370.500000	88.323238  
371.000000	87.433953  
371.500000	86.685421  
372.000000	86.050115  
372.500000	85.563330  
373.000000	85.002555  
373.500000	84.255008  
374.000000	83.493093  
374.500000	82.574139  
375.000000	81.548205  
375.500000	80.373803  
376.000000	78.988883  
376.500000	77.668511  
377.000000	76.679483  
377.500000	75.923675  
378.000000	75.208880  
378.500000	74.543117  
379.000000	73.752101  
379.500000	72.861113  
380.000000	72.011037  
380.500000	70.932115  
381.000000	69.743748  
381.500000	68.699281  
382.000000	67.684622  
382.500000	66.728303  
383.000000	65.845110  
383.500000	64.942211  
384.000000	63.950531  
384.500000	62.979617  
385.000000	61.777812  
385.500000	60.468944  
386.000000	59.191822  
386.500000	57.978125  
387.000000	56.691411  
387.500000	55.309927  
388.000000	54.137874  
388.500000	52.961541  
389.000000	51.864094  
389.500000	50.842205  
390.000000	50.034831  
390.500000	49.351265  
391.000000	48.990519  
391.500000	48.659121  
392.000000	48.118018  
392.500000	47.685097  
393.000000	47.261885  
393.500000	46.685489  
394.000000	45.832513  
394.500000	44.981657  
395.000000	43.856196  
395.500000	42.779046  
396.000000	41.696718  
396.500000	40.463589  
397.000000	39.264566  
397.500000	38.234861  
398.000000	37.317664  
398.500000	36.302126  
399.000000	35.385567  
399.500000	34.526510  
400.000000	33.771651  
400.500000	33.138035  
401.000000	32.501547  
401.500000	31.897444  
402.000000	31.389163  
402.500000	30.976446  
403.000000	30.354882  
403.500000	29.596884  
404.000000	28.867536  
404.500000	28.120827  
405.000000	27.423416  
405.500000	26.744027  
406.000000	26.069622  
406.500000	25.490149  
407.000000	25.042986  
407.500000	24.506645  
408.000000	23.890857  
408.500000	23.307077  
409.000000	22.722919  
409.500000	22.206632  
410.000000	21.787525  
410.500000	21.381916  
411.000000	21.066882  
411.500000	20.879390  
412.000000	20.599219  
412.500000	20.368928  
413.000000	20.240166  
413.500000	20.157809  
414.000000	20.092548  
414.500000	20.159788  
415.000000	20.219886  
415.500000	20.204241  
416.000000	20.130064  
416.500000	19.882988  
417.000000	19.548440  
417.500000	19.210784  
418.000000	18.839741  
418.500000	18.423435  
419.000000	18.128128  
419.500000	17.872015  
420.000000	17.673054  
420.500000	17.517124  
421.000000	17.357472  
421.500000	17.083661  
422.000000	16.823955  
422.500000	16.556830  
423.000000	16.253015  
423.500000	16.016810  
424.000000	15.818216  
424.500000	15.656841  

