PE FL                   SPECTRUM    ASCII       PEDS        1.60        
  -1
PME475~1
23/10/10
11:26:19.00
23/10/10
11:26:19.00


444.500000
1









LS55
50.00
5.00
5.00
SCAN
1
20
100
100
0
500
0
2
0
1
7
ON
500 450 
1 0 0
#HDR
-1
-1
#GR
NM

0.00002384185791015625
0.0
300.000000
0.500000
290
8
71.196149
0.064489
#DATA
300.000000	28.299000 
300.500000	28.590294 
301.000000	29.024696 
301.500000	29.520855 
302.000000	30.056202 
302.500000	30.626293 
303.000000	30.947078 
303.500000	31.189657 
304.000000	31.246519 
304.500000	30.830840 
305.000000	30.392897 
305.500000	29.758981 
306.000000	29.056051 
306.500000	28.550020 
307.000000	28.282026 
307.500000	27.974599 
308.000000	28.041006 
308.500000	28.539535 
309.000000	29.109097 
309.500000	29.751892 
310.000000	30.024370 
310.500000	30.087920 
311.000000	29.995263 
311.500000	30.167321 
312.000000	30.110690 
312.500000	29.928555 
313.000000	30.010363 
313.500000	30.163541 
314.000000	30.523571 
314.500000	30.438204 
315.000000	30.139495 
315.500000	29.734638 
316.000000	29.640105 
316.500000	29.511275 
317.000000	29.258262 
317.500000	29.238645 
318.000000	29.650106 
318.500000	30.442964 
319.000000	31.127124 
319.500000	31.464559 
320.000000	31.743011 
320.500000	32.315070 
321.000000	33.131582 
321.500000	34.051117 
322.000000	35.238512 
322.500000	36.700225 
323.000000	38.303254 
323.500000	40.075857 
324.000000	41.826500 
324.500000	43.675193 
325.000000	45.595882 
325.500000	47.400467 
326.000000	49.003712 
326.500000	50.480192 
327.000000	52.043192 
327.500000	53.428691 
328.000000	54.875699 
328.500000	56.484272 
329.000000	58.188506 
329.500000	60.194078 
330.000000	62.406900 
330.500000	64.681961 
331.000000	66.792393 
331.500000	68.714043 
332.000000	70.382278 
332.500000	71.187339 
333.000000	71.196149 
333.500000	70.256913 
334.000000	68.547117 
334.500000	66.572480 
335.000000	64.189234 
335.500000	61.261473 
336.000000	58.081938 
336.500000	55.359160 
337.000000	52.532778 
337.500000	49.753574 
338.000000	46.705452 
338.500000	43.435263 
339.000000	40.433540 
339.500000	37.435693 
340.000000	34.333237 
340.500000	31.179164 
341.000000	28.778839 
341.500000	26.470871 
342.000000	24.445915 
342.500000	22.404581 
343.000000	20.380140 
343.500000	18.601326 
344.000000	16.824483 
344.500000	15.084066 
345.000000	13.279392 
345.500000	11.972795 
346.000000	10.742115 
346.500000	9.723761  
347.000000	8.799878  
347.500000	7.959550  
348.000000	7.182498  
348.500000	6.473010  
349.000000	5.783003  
349.500000	4.942076  
350.000000	4.266603  
350.500000	3.683652  
351.000000	3.229563  
351.500000	2.948277  
352.000000	2.726503  
352.500000	2.548250  
353.000000	2.566575  
353.500000	2.553099  
354.000000	2.391618  
354.500000	2.080034  
355.000000	1.734061  
355.500000	1.327842  
356.000000	0.912059  
356.500000	0.527232  
357.000000	0.204000  
357.500000	0.140901  
358.000000	0.292623  
358.500000	0.576890  
359.000000	0.849578  
359.500000	1.294535  
360.000000	1.784648  
360.500000	2.059382  
361.000000	2.157083  
361.500000	1.997687  
362.000000	1.719083  
362.500000	1.395891  
363.000000	1.084395  
363.500000	0.634512  
364.000000	0.334648  
364.500000	0.289522  
365.000000	0.343952  
365.500000	0.536141  
366.000000	0.692409  
366.500000	0.804167  
367.000000	0.833989  
367.500000	0.921391  
368.000000	0.903207  
368.500000	0.869854  
369.000000	0.915653  
369.500000	1.040865  
370.000000	1.308584  
370.500000	1.583715  
371.000000	1.803089  
371.500000	1.880648  
372.000000	1.918345  
372.500000	1.873929  
373.000000	1.732727  
373.500000	1.509491  
374.000000	1.258596  
374.500000	1.072679  
375.000000	0.942428  
375.500000	0.874459  
376.000000	0.880417  
376.500000	0.989941  
377.000000	1.134827  
377.500000	1.283357  
378.000000	1.413167  
378.500000	1.545460  
379.000000	1.663448  
379.500000	1.685373  
380.000000	1.624087  
380.500000	1.577866  
381.000000	1.610673  
381.500000	1.648918  
382.000000	1.713366  
382.500000	1.794057  
383.000000	1.922406  
383.500000	2.029274  
384.000000	2.040414  
384.500000	1.906374  
385.000000	1.712435  
385.500000	1.521185  
386.000000	1.319802  
386.500000	1.180119  
387.000000	1.087614  
387.500000	1.097984  
388.000000	1.161193  
388.500000	1.230151  
389.000000	1.287231  
389.500000	1.322111  
390.000000	1.401596  
390.500000	1.461893  
391.000000	1.541724  
391.500000	1.622169  
392.000000	1.757398  
392.500000	1.836971  
393.000000	1.849917  
393.500000	1.826091  
394.000000	1.684206  
394.500000	1.549792  
395.000000	1.396210  
395.500000	1.265322  
396.000000	1.130307  
396.500000	1.069048  
397.000000	1.064816  
397.500000	1.048868  
398.000000	1.116136  
398.500000	1.104494  
399.000000	1.119697  
399.500000	1.136338  
400.000000	1.115639  
400.500000	1.045041  
401.000000	1.016008  
401.500000	1.012587  
402.000000	1.007985  
402.500000	1.072480  
403.000000	1.141146  
403.500000	1.235081  
404.000000	1.350148  
404.500000	1.407690  
405.000000	1.360090  
405.500000	1.250227  
406.000000	1.117591  
406.500000	0.950825  
407.000000	0.819356  
407.500000	0.699414  
408.000000	0.626556  
408.500000	0.654823  
409.000000	0.714679  
409.500000	0.746850  
410.000000	0.781242  
410.500000	0.827509  
411.000000	0.850526  
411.500000	0.867979  
412.000000	0.844538  
412.500000	0.789132  
413.000000	0.773141  
413.500000	0.767351  
414.000000	0.729561  
414.500000	0.692275  
415.000000	0.689056  
415.500000	0.668219  
416.000000	0.664406  
416.500000	0.629437  
417.000000	0.536595  
417.500000	0.487652  
418.000000	0.450115  
418.500000	0.365072  
419.000000	0.287901  
419.500000	0.266724  
420.000000	0.267402  
420.500000	0.282216  
421.000000	0.290006  
421.500000	0.251304  
422.000000	0.249062  
422.500000	0.276607  
423.000000	0.254358  
423.500000	0.203014  
424.000000	0.167523  
424.500000	0.158671  
425.000000	0.158053  
425.500000	0.147060  
426.000000	0.098248  
426.500000	0.064489  
427.000000	0.065208  
427.500000	0.079249  
428.000000	0.084818  
428.500000	0.084725  
429.000000	0.107259  
429.500000	0.137723  
430.000000	0.167757  
430.500000	0.166847  
431.000000	0.141502  
431.500000	0.109098  
432.000000	0.101567  
432.500000	0.097764  
433.000000	0.101821  
433.500000	0.127974  
434.000000	0.167171  
434.500000	0.219225  
435.000000	0.261423  
435.500000	0.267880  
436.000000	0.236212  
436.500000	0.208375  
437.000000	0.179390  
437.500000	0.145178  
438.000000	0.128777  
438.500000	0.128913  
439.000000	0.132485  
439.500000	0.141656  
440.000000	0.162556  
440.500000	0.182335  
441.000000	0.209184  
441.500000	0.249706  
442.000000	0.270276  
442.500000	0.296701  
443.000000	0.323830  
443.500000	0.317702  
444.000000	0.280945  
444.500000	0.246682  

