PE FL                   SPECTRUM    ASCII       PEDS        1.60        
  -1
PM6565~1
23/10/10
11:25:10.00
23/10/10
11:25:10.00


444.500000
1









LS55
40.00
5.00
5.00
SCAN
1
20
100
100
0
500
0
2
0
1
7
ON
500 450 
1 0 0
#HDR
-1
-1
#GR
NM

0.00002384185791015625
0.0
300.000000
0.500000
290
8
91.581954
-0.021432
#DATA
300.000000	18.974000 
300.500000	17.422431 
301.000000	16.051699 
301.500000	15.371659 
302.000000	15.318083 
302.500000	15.899000 
303.000000	16.917336 
303.500000	18.021341 
304.000000	18.991834 
304.500000	19.892867 
305.000000	20.767261 
305.500000	21.349262 
306.000000	21.933342 
306.500000	22.363776 
307.000000	22.825933 
307.500000	23.410831 
308.000000	23.892827 
308.500000	24.302135 
309.000000	24.495901 
309.500000	24.778462 
310.000000	24.722562 
310.500000	24.533179 
311.000000	24.250990 
311.500000	23.906454 
312.000000	24.075084 
312.500000	24.324361 
313.000000	25.002535 
313.500000	25.754310 
314.000000	26.767122 
314.500000	27.493469 
315.000000	28.171621 
315.500000	28.898891 
316.000000	29.287050 
316.500000	29.880881 
317.000000	30.377222 
317.500000	31.250357 
318.000000	32.039717 
318.500000	33.123258 
319.000000	33.930280 
319.500000	34.566509 
320.000000	35.367395 
320.500000	36.078853 
321.000000	36.909747 
321.500000	37.766875 
322.000000	39.372621 
322.500000	41.279072 
323.000000	43.718808 
323.500000	46.322804 
324.000000	48.731138 
324.500000	51.107862 
325.000000	53.746412 
325.500000	55.877602 
326.000000	57.946170 
326.500000	60.703694 
327.000000	63.483171 
327.500000	67.016232 
328.000000	71.344460 
328.500000	75.581168 
329.000000	79.332037 
329.500000	83.096750 
330.000000	85.902740 
330.500000	88.041278 
331.000000	89.814295 
331.500000	90.586322 
332.000000	91.037853 
332.500000	91.537856 
333.000000	91.581954 
333.500000	90.793062 
334.000000	89.683178 
334.500000	87.710090 
335.000000	85.760456 
335.500000	83.771084 
336.000000	81.033198 
336.500000	77.867957 
337.000000	74.795141 
337.500000	71.474112 
338.000000	67.616283 
338.500000	63.376638 
339.000000	58.513723 
339.500000	53.979603 
340.000000	49.669544 
340.500000	45.480779 
341.000000	41.515700 
341.500000	38.021364 
342.000000	34.770282 
342.500000	31.784031 
343.000000	29.046758 
343.500000	26.160731 
344.000000	23.558299 
344.500000	21.087464 
345.000000	18.702946 
345.500000	16.472023 
346.000000	14.620100 
346.500000	12.937890 
347.000000	11.493263 
347.500000	10.354218 
348.000000	9.374236  
348.500000	8.627355  
349.000000	7.932719  
349.500000	7.396993  
350.000000	6.841538  
350.500000	6.339700  
351.000000	5.890503  
351.500000	5.546456  
352.000000	5.218961  
352.500000	5.033450  
353.000000	4.886008  
353.500000	4.616303  
354.000000	4.474523  
354.500000	4.239439  
355.000000	3.852418  
355.500000	3.531361  
356.000000	3.220746  
356.500000	2.833771  
357.000000	2.546339  
357.500000	2.308475  
358.000000	2.036341  
358.500000	1.840577  
359.000000	1.647058  
359.500000	1.405574  
360.000000	1.281153  
360.500000	1.209641  
361.000000	1.171948  
361.500000	1.227739  
362.000000	1.388926  
362.500000	1.539371  
363.000000	1.556356  
363.500000	1.533874  
364.000000	1.478584  
364.500000	1.387628  
365.000000	1.234533  
365.500000	1.157781  
366.000000	1.196095  
366.500000	1.350091  
367.000000	1.469165  
367.500000	1.422817  
368.000000	1.273882  
368.500000	1.141127  
369.000000	0.958950  
369.500000	0.681364  
370.000000	0.383788  
370.500000	0.198575  
371.000000	0.227638  
371.500000	0.295047  
372.000000	0.261039  
372.500000	0.296567  
373.000000	0.462034  
373.500000	0.719582  
374.000000	0.937962  
374.500000	1.022548  
375.000000	1.101623  
375.500000	1.225748  
376.000000	1.209693  
376.500000	0.955462  
377.000000	0.658679  
377.500000	0.401849  
378.000000	0.311973  
378.500000	0.361749  
379.000000	0.406273  
379.500000	0.481704  
380.000000	0.676897  
380.500000	0.824847  
381.000000	0.774610  
381.500000	0.641095  
382.000000	0.417311  
382.500000	0.259800  
383.000000	0.198718  
383.500000	0.164672  
384.000000	0.148387  
384.500000	0.220980  
385.000000	0.350490  
385.500000	0.435521  
386.000000	0.476116  
386.500000	0.438438  
387.000000	0.406611  
387.500000	0.403964  
388.000000	0.385806  
388.500000	0.331947  
389.000000	0.260926  
389.500000	0.244321  
390.000000	0.218843  
390.500000	0.170481  
391.000000	0.115148  
391.500000	0.075669  
392.000000	0.061647  
392.500000	0.072982  
393.000000	0.118602  
393.500000	0.132718  
394.000000	0.178845  
394.500000	0.219745  
395.000000	0.216148  
395.500000	0.202369  
396.000000	0.158335  
396.500000	0.104899  
397.000000	0.052327  
397.500000	0.020596  
398.000000	-0.012911 
398.500000	0.007256  
399.000000	0.066026  
399.500000	0.133990  
400.000000	0.228912  
400.500000	0.293960  
401.000000	0.323836  
401.500000	0.322220  
402.000000	0.326504  
402.500000	0.294540  
403.000000	0.277217  
403.500000	0.291532  
404.000000	0.326720  
404.500000	0.404798  
405.000000	0.469988  
405.500000	0.518110  
406.000000	0.537551  
406.500000	0.563500  
407.000000	0.568120  
407.500000	0.557430  
408.000000	0.542651  
408.500000	0.514584  
409.000000	0.515786  
409.500000	0.508112  
410.000000	0.478331  
410.500000	0.420145  
411.000000	0.390177  
411.500000	0.357800  
412.000000	0.323997  
412.500000	0.290956  
413.000000	0.233545  
413.500000	0.209191  
414.000000	0.182198  
414.500000	0.145219  
415.000000	0.106121  
415.500000	0.107449  
416.000000	0.118942  
416.500000	0.132965  
417.000000	0.149791  
417.500000	0.109684  
418.000000	0.078333  
418.500000	0.047460  
419.000000	0.005688  
419.500000	-0.021432 
420.000000	-0.012042 
420.500000	0.033339  
421.000000	0.097289  
421.500000	0.178231  
422.000000	0.215848  
422.500000	0.265911  
423.000000	0.306087  
423.500000	0.311513  
424.000000	0.305888  
424.500000	0.310873  
425.000000	0.299039  
425.500000	0.283103  
426.000000	0.269927  
426.500000	0.235224  
427.000000	0.213739  
427.500000	0.219054  
428.000000	0.222095  
428.500000	0.219490  
429.000000	0.256703  
429.500000	0.294260  
430.000000	0.313663  
430.500000	0.311339  
431.000000	0.288675  
431.500000	0.266513  
432.000000	0.263277  
432.500000	0.277456  
433.000000	0.269119  
433.500000	0.285215  
434.000000	0.310059  
434.500000	0.314249  
435.000000	0.296875  
435.500000	0.280589  
436.000000	0.270709  
436.500000	0.264207  
437.000000	0.281657  
437.500000	0.294169  
438.000000	0.323220  
438.500000	0.374213  
439.000000	0.409327  
439.500000	0.407966  
440.000000	0.397448  
440.500000	0.374323  
441.000000	0.327259  
441.500000	0.291021  
442.000000	0.260897  
442.500000	0.237506  
443.000000	0.239289  
443.500000	0.246436  
444.000000	0.235796  
444.500000	0.248276  

