PE FL                   SPECTRUM    ASCII       PEDS        1.60        
  -1
PM1565~1
23/10/10
11:22:19.00
23/10/10
11:22:19.00


444.500000
1









LS55
15.00
5.00
5.00
SCAN
1
20
100
100
0
500
0
2
0
1
7
ON
500 450 
1 0 0
#HDR
-1
-1
#GR
NM

0.00002384185791015625
0.0
300.000000
0.500000
290
8
88.286732
-4.664945
#DATA
300.000000	2.076000  
300.500000	0.229624  
301.000000	-1.382752 
301.500000	-2.775056 
302.000000	-3.916524 
302.500000	-4.600602 
303.000000	-4.664945 
303.500000	-4.359627 
304.000000	-3.647555 
304.500000	-2.655607 
305.000000	-1.611895 
305.500000	-0.601548 
306.000000	0.268263  
306.500000	0.688165  
307.000000	0.605697  
307.500000	0.259193  
308.000000	-0.244328 
308.500000	-0.717798 
309.000000	-1.083034 
309.500000	-1.282822 
310.000000	-1.339093 
310.500000	-1.225476 
311.000000	-1.187617 
311.500000	-1.441874 
312.000000	-1.822942 
312.500000	-2.186176 
313.000000	-2.399710 
313.500000	-2.416597 
314.000000	-2.104178 
314.500000	-1.722113 
315.000000	-1.289105 
315.500000	-0.596193 
316.000000	0.052850  
316.500000	0.638198  
317.000000	1.135537  
317.500000	1.724288  
318.000000	2.375479  
318.500000	3.285522  
319.000000	4.371179  
319.500000	5.307613  
320.000000	6.225703  
320.500000	7.027209  
321.000000	7.858267  
321.500000	8.553397  
322.000000	9.041039  
322.500000	9.558668  
323.000000	10.330957 
323.500000	11.499481 
324.000000	12.832069 
324.500000	14.491226 
325.000000	16.696642 
325.500000	19.327167 
326.000000	22.245777 
326.500000	25.347487 
327.000000	28.546286 
327.500000	32.024814 
328.000000	35.841809 
328.500000	39.962142 
329.000000	44.166876 
329.500000	48.770919 
330.000000	53.279627 
330.500000	58.022342 
331.000000	62.829691 
331.500000	67.282223 
332.000000	71.760955 
332.500000	75.967338 
333.000000	79.567778 
333.500000	82.660524 
334.000000	85.284782 
334.500000	87.012582 
335.000000	88.029519 
335.500000	88.286732 
336.000000	87.404845 
336.500000	85.978576 
337.000000	84.388151 
337.500000	82.260642 
338.000000	79.890438 
338.500000	77.128484 
339.000000	73.921484 
339.500000	70.409839 
340.000000	66.443045 
340.500000	61.858058 
341.000000	56.964646 
341.500000	52.507681 
342.000000	48.236313 
342.500000	44.341408 
343.000000	40.701990 
343.500000	37.678200 
344.000000	35.140528 
344.500000	32.770183 
345.000000	30.304982 
345.500000	27.463389 
346.000000	24.598408 
346.500000	21.883529 
347.000000	19.204974 
347.500000	16.632280 
348.000000	14.358810 
348.500000	12.579054 
349.000000	11.186034 
349.500000	10.082469 
350.000000	9.064116  
350.500000	8.172165  
351.000000	7.450336  
351.500000	6.789529  
352.000000	6.073275  
352.500000	5.315492  
353.000000	4.721734  
353.500000	4.247092  
354.000000	3.841222  
354.500000	3.389869  
355.000000	2.980064  
355.500000	2.652495  
356.000000	2.424274  
356.500000	2.217270  
357.000000	2.067012  
357.500000	1.959277  
358.000000	1.850851  
358.500000	1.729328  
359.000000	1.548055  
359.500000	1.378410  
360.000000	1.185423  
360.500000	1.029857  
361.000000	0.869372  
361.500000	0.890451  
362.000000	0.950843  
362.500000	1.073815  
363.000000	1.167795  
363.500000	1.256978  
364.000000	1.359225  
364.500000	1.391456  
365.000000	1.354260  
365.500000	1.199183  
366.000000	1.091896  
366.500000	0.925281  
367.000000	0.798602  
367.500000	0.604643  
368.000000	0.471911  
368.500000	0.432776  
369.000000	0.461561  
369.500000	0.607103  
370.000000	0.833475  
370.500000	1.076536  
371.000000	1.215946  
371.500000	1.392438  
372.000000	1.472415  
372.500000	1.488852  
373.000000	1.461315  
373.500000	1.302928  
374.000000	1.137315  
374.500000	0.986587  
375.000000	0.807374  
375.500000	0.579522  
376.000000	0.449352  
376.500000	0.395654  
377.000000	0.424988  
377.500000	0.605422  
378.000000	0.807480  
378.500000	1.099853  
379.000000	1.414986  
379.500000	1.646307  
380.000000	1.761613  
380.500000	1.806496  
381.000000	1.737002  
381.500000	1.534126  
382.000000	1.249901  
382.500000	0.986299  
383.000000	0.844275  
383.500000	0.798790  
384.000000	0.780120  
384.500000	0.760164  
385.000000	0.813417  
385.500000	0.894272  
386.000000	1.018142  
386.500000	1.053334  
387.000000	1.074721  
387.500000	1.108653  
388.000000	1.182540  
388.500000	1.277712  
389.000000	1.277552  
389.500000	1.224861  
390.000000	1.095376  
390.500000	1.012500  
391.000000	0.923390  
391.500000	0.852688  
392.000000	0.801484  
392.500000	0.814248  
393.000000	0.944423  
393.500000	1.039777  
394.000000	1.120693  
394.500000	1.106545  
395.000000	1.063273  
395.500000	1.027124  
396.000000	0.963797  
396.500000	0.913555  
397.000000	0.880370  
397.500000	0.915592  
398.000000	0.944305  
398.500000	1.000548  
399.000000	1.053847  
399.500000	1.087687  
400.000000	1.101252  
400.500000	1.074042  
401.000000	1.043166  
401.500000	1.012181  
402.000000	1.001386  
402.500000	0.949004  
403.000000	0.929376  
403.500000	0.966267  
404.000000	1.032045  
404.500000	1.120881  
405.000000	1.199911  
405.500000	1.254486  
406.000000	1.294372  
406.500000	1.336973  
407.000000	1.313649  
407.500000	1.248110  
408.000000	1.174935  
408.500000	1.107916  
409.000000	1.065144  
409.500000	1.057237  
410.000000	1.038363  
410.500000	1.032111  
411.000000	1.090845  
411.500000	1.136052  
412.000000	1.165276  
412.500000	1.203263  
413.000000	1.238280  
413.500000	1.282057  
414.000000	1.329440  
414.500000	1.314890  
415.000000	1.251042  
415.500000	1.162009  
416.000000	1.036368  
416.500000	0.886591  
417.000000	0.736543  
417.500000	0.645136  
418.000000	0.630676  
418.500000	0.687665  
419.000000	0.755869  
419.500000	0.840824  
420.000000	0.912891  
420.500000	0.943912  
421.000000	0.915698  
421.500000	0.832973  
422.000000	0.744079  
422.500000	0.685989  
423.000000	0.653583  
423.500000	0.627052  
424.000000	0.635419  
424.500000	0.643529  
425.000000	0.662930  
425.500000	0.684553  
426.000000	0.670562  
426.500000	0.663729  
427.000000	0.683139  
427.500000	0.731872  
428.000000	0.776137  
428.500000	0.809352  
429.000000	0.805123  
429.500000	0.789554  
430.000000	0.779459  
430.500000	0.754303  
431.000000	0.732631  
431.500000	0.734052  
432.000000	0.781481  
432.500000	0.859269  
433.000000	0.950228  
433.500000	1.004984  
434.000000	1.007630  
434.500000	0.982087  
435.000000	0.939838  
435.500000	0.881941  
436.000000	0.819267  
436.500000	0.787104  
437.000000	0.783347  
437.500000	0.831585  
438.000000	0.889685  
438.500000	0.930695  
439.000000	0.945778  
439.500000	0.958329  
440.000000	0.944681  
440.500000	0.919779  
441.000000	0.891277  
441.500000	0.844954  
442.000000	0.823608  
442.500000	0.810145  
443.000000	0.799981  
443.500000	0.790678  
444.000000	0.795494  
444.500000	0.800769  

