PE FL                   SPECTRUM    ASCII       PEDS        1.60        
  -1
PM2565~1
23/10/10
11:22:53.00
23/10/10
11:22:53.00


444.500000
1









LS55
20.00
5.00
5.00
SCAN
1
20
100
100
0
500
0
2
0
1
7
ON
500 450 
1 0 0
#HDR
-1
-1
#GR
NM

0.00002384185791015625
0.0
300.000000
0.500000
290
8
104.421309
-5.000000
#DATA
300.000000	-5.000000  
300.500000	-3.794020  
301.000000	-2.436758  
301.500000	-1.180571  
302.000000	-0.114656  
302.500000	0.743455   
303.000000	1.380365   
303.500000	1.797155   
304.000000	1.986376   
304.500000	1.766847   
305.000000	1.275543   
305.500000	0.843598   
306.000000	0.502552   
306.500000	0.295108   
307.000000	0.336481   
307.500000	0.571941   
308.000000	0.749759   
308.500000	0.965264   
309.000000	0.904704   
309.500000	0.507134   
310.000000	0.060841   
310.500000	-0.466679  
311.000000	-0.755385  
311.500000	-0.632550  
312.000000	0.004717   
312.500000	0.888172   
313.000000	1.981065   
313.500000	3.192720   
314.000000	4.230563   
314.500000	5.038553   
315.000000	5.617067   
315.500000	5.971782   
316.000000	6.302552   
316.500000	6.891189   
317.000000	7.750791   
317.500000	8.768303   
318.000000	9.981438   
318.500000	11.274776  
319.000000	12.574875  
319.500000	13.692544  
320.000000	14.267377  
320.500000	14.722491  
321.000000	15.154748  
321.500000	15.779280  
322.000000	16.650656  
322.500000	17.811148  
323.000000	19.521029  
323.500000	21.917622  
324.000000	24.946491  
324.500000	28.251646  
325.000000	31.712588  
325.500000	35.203162  
326.000000	38.663766  
326.500000	42.262713  
327.000000	45.694436  
327.500000	49.335991  
328.000000	53.609789  
328.500000	58.617822  
329.000000	64.465331  
329.500000	70.639036  
330.000000	77.168895  
330.500000	83.617272  
331.000000	89.968141  
331.500000	95.196740  
332.000000	99.404564  
332.500000	102.143883 
333.000000	103.616502 
333.500000	104.421309 
334.000000	104.166260 
334.500000	103.347141 
335.000000	102.161913 
335.500000	100.872159 
336.000000	99.138868  
336.500000	97.370104  
337.000000	95.182240  
337.500000	92.226274  
338.000000	88.784296  
338.500000	84.570279  
339.000000	79.862018  
339.500000	74.920446  
340.000000	69.801806  
340.500000	64.566018  
341.000000	59.812109  
341.500000	55.547720  
342.000000	51.304680  
342.500000	47.041387  
343.000000	42.622265  
343.500000	38.305730  
344.000000	34.298778  
344.500000	30.410293  
345.000000	26.664032  
345.500000	23.168096  
346.000000	20.163404  
346.500000	17.610446  
347.000000	15.414639  
347.500000	13.333078  
348.000000	11.650722  
348.500000	10.390705  
349.000000	9.562045   
349.500000	9.034882   
350.000000	8.618762   
350.500000	8.154767   
351.000000	7.757947   
351.500000	7.403189   
352.000000	6.809513   
352.500000	6.179810   
353.000000	5.516183   
353.500000	4.958612   
354.000000	4.561671   
354.500000	4.173858   
355.000000	3.752518   
355.500000	3.346751   
356.000000	3.037213   
356.500000	2.669082   
357.000000	2.420877   
357.500000	2.101884   
358.000000	1.778298   
358.500000	1.515342   
359.000000	1.332729   
359.500000	1.117186   
360.000000	0.851282   
360.500000	0.663852   
361.000000	0.536161   
361.500000	0.646478   
362.000000	0.799118   
362.500000	0.980199   
363.000000	1.113680   
363.500000	1.379349   
364.000000	1.611245   
364.500000	1.712360   
365.000000	1.741814   
365.500000	1.714810   
366.000000	1.719828   
366.500000	1.713967   
367.000000	1.679565   
367.500000	1.527218   
368.000000	1.384144   
368.500000	1.240962   
369.000000	1.064473   
369.500000	0.915999   
370.000000	0.804901   
370.500000	0.694361   
371.000000	0.691568   
371.500000	0.780146   
372.000000	0.885699   
372.500000	0.988258   
373.000000	1.020467   
373.500000	1.045793   
374.000000	1.112139   
374.500000	1.134448   
375.000000	1.098068   
375.500000	1.116384   
376.000000	1.193831   
376.500000	1.255073   
377.000000	1.281504   
377.500000	1.254530   
378.000000	1.199815   
378.500000	1.222608   
379.000000	1.212072   
379.500000	1.129167   
380.000000	1.085940   
380.500000	1.149200   
381.000000	1.197252   
381.500000	1.178251   
382.000000	1.094075   
382.500000	0.910922   
383.000000	0.738023   
383.500000	0.568016   
384.000000	0.321980   
384.500000	0.131419   
385.000000	0.120424   
385.500000	0.186279   
386.000000	0.262855   
386.500000	0.409273   
387.000000	0.499701   
387.500000	0.567325   
388.000000	0.620951   
388.500000	0.626926   
389.000000	0.647591   
389.500000	0.737938   
390.000000	0.875602   
390.500000	0.976271   
391.000000	1.131439   
391.500000	1.311496   
392.000000	1.449099   
392.500000	1.494388   
393.000000	1.442868   
393.500000	1.345795   
394.000000	1.238600   
394.500000	1.166411   
395.000000	1.037219   
395.500000	0.917925   
396.000000	0.880253   
396.500000	0.892876   
397.000000	0.912201   
397.500000	0.962473   
398.000000	0.982957   
398.500000	0.971716   
399.000000	0.966694   
399.500000	0.928301   
400.000000	0.837827   
400.500000	0.750934   
401.000000	0.646471   
401.500000	0.569901   
402.000000	0.574661   
402.500000	0.601347   
403.000000	0.661308   
403.500000	0.761512   
404.000000	0.882463   
404.500000	0.982548   
405.000000	1.059275   
405.500000	1.041393   
406.000000	0.953375   
406.500000	0.853020   
407.000000	0.778427   
407.500000	0.694810   
408.000000	0.648021   
408.500000	0.612981   
409.000000	0.619258   
409.500000	0.676481   
410.000000	0.771301   
410.500000	0.848410   
411.000000	0.887877   
411.500000	0.963738   
412.000000	1.005715   
412.500000	1.028800   
413.000000	0.981191   
413.500000	0.881395   
414.000000	0.777695   
414.500000	0.724306   
415.000000	0.679619   
415.500000	0.596685   
416.000000	0.590970   
416.500000	0.630644   
417.000000	0.694927   
417.500000	0.755884   
418.000000	0.791011   
418.500000	0.807253   
419.000000	0.843807   
419.500000	0.868894   
420.000000	0.853825   
420.500000	0.839958   
421.000000	0.834048   
421.500000	0.822303   
422.000000	0.803833   
422.500000	0.806125   
423.000000	0.826980   
423.500000	0.869897   
424.000000	0.910430   
424.500000	0.944025   
425.000000	0.956280   
425.500000	0.923414   
426.000000	0.862721   
426.500000	0.749475   
427.000000	0.632432   
427.500000	0.533250   
428.000000	0.449931   
428.500000	0.383240   
429.000000	0.390718   
429.500000	0.436027   
430.000000	0.500529   
430.500000	0.596244   
431.000000	0.676265   
431.500000	0.736417   
432.000000	0.775003   
432.500000	0.762620   
433.000000	0.710098   
433.500000	0.681431   
434.000000	0.651459   
434.500000	0.614602   
435.000000	0.595961   
435.500000	0.607125   
436.000000	0.635549   
436.500000	0.671799   
437.000000	0.685935   
437.500000	0.681418   
438.000000	0.694031   
438.500000	0.700301   
439.000000	0.699262   
439.500000	0.690224   
440.000000	0.680846   
440.500000	0.694403   
441.000000	0.724977   
441.500000	0.746993   
442.000000	0.762297   
442.500000	0.780962   
443.000000	0.796128   
443.500000	0.810649   
444.000000	0.803988   
444.500000	0.778926   

