PE FL                   SPECTRUM    ASCII       PEDS        1.60        
  -1
PMPPNS~2
23/10/12
11:17:54.00
23/10/12
11:17:54.00


444.500000
1









LS55
10.00
5.00
5.00
SCAN
1
20
100
500
0
500
0
2
0
1
7
ON
900 316 
1 0 0
#HDR
-1
-1
#GR
NM

0.00002384185791015625
0.0
250.000000
0.500000
390
8
2.702307
-4.701763
#DATA
250.000000	-1.468000 
250.500000	-0.868892 
251.000000	-0.467953 
251.500000	-0.311784 
252.000000	-0.358365 
252.500000	-0.624240 
253.000000	-1.071131 
253.500000	-1.650578 
254.000000	-2.271574 
254.500000	-2.881512 
255.000000	-3.448535 
255.500000	-3.798490 
256.000000	-3.974118 
256.500000	-4.017621 
257.000000	-3.994004 
257.500000	-3.792222 
258.000000	-3.298889 
258.500000	-2.727632 
259.000000	-2.275678 
259.500000	-2.239502 
260.000000	-2.093170 
260.500000	-1.950668 
261.000000	-1.933157 
261.500000	-2.096598 
262.000000	-2.170909 
262.500000	-2.165853 
263.000000	-2.043105 
263.500000	-1.834196 
264.000000	-1.610415 
264.500000	-1.023345 
265.000000	-0.303912 
265.500000	0.324136  
266.000000	0.658847  
266.500000	0.867867  
267.000000	0.677799  
267.500000	-0.085044 
268.000000	-1.192953 
268.500000	-2.568541 
269.000000	-3.722372 
269.500000	-4.473586 
270.000000	-4.701763 
270.500000	-4.507265 
271.000000	-3.720873 
271.500000	-2.750973 
272.000000	-1.958574 
272.500000	-1.403274 
273.000000	-1.335466 
273.500000	-1.646342 
274.000000	-2.146531 
274.500000	-2.610005 
275.000000	-3.090378 
275.500000	-3.388762 
276.000000	-3.724365 
276.500000	-3.987262 
277.000000	-3.802491 
277.500000	-3.637329 
278.000000	-3.423530 
278.500000	-3.248984 
279.000000	-3.028743 
279.500000	-2.780626 
280.000000	-2.512614 
280.500000	-2.475576 
281.000000	-2.462844 
281.500000	-2.251558 
282.000000	-2.079634 
282.500000	-1.821998 
283.000000	-1.577550 
283.500000	-1.421829 
284.000000	-1.420321 
284.500000	-1.725864 
285.000000	-2.276716 
285.500000	-2.924603 
286.000000	-3.475150 
286.500000	-3.854000 
287.000000	-4.017403 
287.500000	-3.851705 
288.000000	-3.438040 
288.500000	-2.795039 
289.000000	-2.308515 
289.500000	-2.005889 
290.000000	-1.706658 
290.500000	-1.100940 
291.000000	-0.382163 
291.500000	0.275603  
292.000000	0.707732  
292.500000	1.062013  
293.000000	1.300541  
293.500000	1.362707  
294.000000	1.129625  
294.500000	0.504753  
295.000000	0.067096  
295.500000	-0.141568 
296.000000	-0.162008 
296.500000	-0.352293 
297.000000	-0.485970 
297.500000	-0.489864 
298.000000	-0.274224 
298.500000	-0.088547 
299.000000	-0.373322 
299.500000	-0.609540 
300.000000	-0.752517 
300.500000	-0.660922 
301.000000	-0.662341 
301.500000	-0.615254 
302.000000	-0.573779 
302.500000	-0.519836 
303.000000	-0.037303 
303.500000	0.291077  
304.000000	0.674684  
304.500000	0.828152  
305.000000	0.952885  
305.500000	0.916269  
306.000000	0.746537  
306.500000	0.248837  
307.000000	-0.540679 
307.500000	-1.231230 
308.000000	-1.819720 
308.500000	-2.023285 
309.000000	-2.242536 
309.500000	-2.340663 
310.000000	-2.142325 
310.500000	-1.651865 
311.000000	-1.153311 
311.500000	-0.827868 
312.000000	-0.624840 
312.500000	-0.425396 
313.000000	-0.176600 
313.500000	0.011422  
314.000000	0.094255  
314.500000	0.330871  
315.000000	0.514517  
315.500000	0.720902  
316.000000	0.945150  
316.500000	1.133167  
317.000000	1.358821  
317.500000	1.317165  
318.000000	1.312096  
318.500000	1.184509  
319.000000	1.226299  
319.500000	1.143794  
320.000000	1.107491  
320.500000	0.959411  
321.000000	0.937400  
321.500000	1.085644  
322.000000	0.994908  
322.500000	0.835953  
323.000000	0.625993  
323.500000	0.719762  
324.000000	0.827565  
324.500000	1.254765  
325.000000	1.486080  
325.500000	1.665271  
326.000000	1.884933  
326.500000	1.853139  
327.000000	1.670089  
327.500000	1.295545  
328.000000	1.029185  
328.500000	0.704600  
329.000000	0.915877  
329.500000	1.096638  
330.000000	1.287911  
330.500000	1.519512  
331.000000	1.675590  
331.500000	1.852828  
332.000000	1.838016  
332.500000	1.932203  
333.000000	1.806530  
333.500000	2.017484  
334.000000	2.141515  
334.500000	2.247028  
335.000000	2.277304  
335.500000	2.124415  
336.000000	2.045944  
336.500000	1.848618  
337.000000	1.851125  
337.500000	1.704240  
338.000000	1.637643  
338.500000	1.468872  
339.000000	1.333119  
339.500000	1.216110  
340.000000	0.958209  
340.500000	0.757017  
341.000000	0.528311  
341.500000	0.578794  
342.000000	0.722006  
342.500000	0.936233  
343.000000	1.079493  
343.500000	1.249685  
344.000000	1.364621  
344.500000	1.336529  
345.000000	1.253817  
345.500000	1.111385  
346.000000	1.092529  
346.500000	1.114221  
347.000000	1.247533  
347.500000	1.355281  
348.000000	1.535175  
348.500000	1.673598  
349.000000	1.746690  
349.500000	1.816925  
350.000000	1.774577  
350.500000	1.682745  
351.000000	1.535325  
351.500000	1.506397  
352.000000	1.432961  
352.500000	1.495676  
353.000000	1.626235  
353.500000	1.744371  
354.000000	1.957830  
354.500000	2.012552  
355.000000	2.055192  
355.500000	1.991905  
356.000000	1.925655  
356.500000	1.773521  
357.000000	1.621765  
357.500000	1.464010  
358.000000	1.366186  
358.500000	1.397102  
359.000000	1.379332  
359.500000	1.410385  
360.000000	1.527252  
360.500000	1.681039  
361.000000	1.760965  
361.500000	1.855437  
362.000000	1.900726  
362.500000	1.866581  
363.000000	1.774889  
363.500000	1.569401  
364.000000	1.296921  
364.500000	1.179282  
365.000000	1.138088  
365.500000	1.172108  
366.000000	1.385461  
366.500000	1.742438  
367.000000	2.126036  
367.500000	2.414462  
368.000000	2.649235  
368.500000	2.694504  
369.000000	2.702307  
369.500000	2.674489  
370.000000	2.510331  
370.500000	2.214262  
371.000000	1.968871  
371.500000	1.811163  
372.000000	1.616638  
372.500000	1.460065  
373.000000	1.335112  
373.500000	1.333768  
374.000000	1.463456  
374.500000	1.642355  
375.000000	1.776000  
375.500000	1.828698  
376.000000	1.897453  
376.500000	1.835959  
377.000000	1.727104  
377.500000	1.547583  
378.000000	1.335507  
378.500000	1.264364  
379.000000	1.316128  
379.500000	1.432652  
380.000000	1.575660  
380.500000	1.748647  
381.000000	1.885061  
381.500000	2.010896  
382.000000	1.982897  
382.500000	1.851173  
383.000000	1.734794  
383.500000	1.605044  
384.000000	1.466077  
384.500000	1.354800  
385.000000	1.308828  
385.500000	1.308550  
386.000000	1.434311  
386.500000	1.529583  
387.000000	1.618626  
387.500000	1.725026  
388.000000	1.790065  
388.500000	1.801600  
389.000000	1.779836  
389.500000	1.784254  
390.000000	1.784573  
390.500000	1.804941  
391.000000	1.763732  
391.500000	1.736425  
392.000000	1.740356  
392.500000	1.747548  
393.000000	1.751149  
393.500000	1.751280  
394.000000	1.763365  
394.500000	1.780183  
395.000000	1.764693  
395.500000	1.701442  
396.000000	1.596384  
396.500000	1.493206  
397.000000	1.432806  
397.500000	1.399040  
398.000000	1.390502  
398.500000	1.399028  
399.000000	1.473469  
399.500000	1.533751  
400.000000	1.544385  
400.500000	1.486119  
401.000000	1.402386  
401.500000	1.323029  
402.000000	1.281093  
402.500000	1.283638  
403.000000	1.311769  
403.500000	1.439672  
404.000000	1.580417  
404.500000	1.679152  
405.000000	1.763800  
405.500000	1.847427  
406.000000	1.850108  
406.500000	1.800022  
407.000000	1.709647  
407.500000	1.594414  
408.000000	1.506125  
408.500000	1.396403  
409.000000	1.233098  
409.500000	1.156152  
410.000000	1.175680  
410.500000	1.227548  
411.000000	1.281973  
411.500000	1.386295  
412.000000	1.543002  
412.500000	1.738558  
413.000000	1.852808  
413.500000	1.831439  
414.000000	1.818355  
414.500000	1.774113  
415.000000	1.709976  
415.500000	1.609584  
416.000000	1.538666  
416.500000	1.514272  
417.000000	1.562658  
417.500000	1.595217  
418.000000	1.585231  
418.500000	1.604635  
419.000000	1.602682  
419.500000	1.574859  
420.000000	1.553560  
420.500000	1.561778  
421.000000	1.577940  
421.500000	1.616125  
422.000000	1.642092  
422.500000	1.651493  
423.000000	1.649521  
423.500000	1.634199  
424.000000	1.565815  
424.500000	1.473919  
425.000000	1.414886  
425.500000	1.377539  
426.000000	1.346147  
426.500000	1.328084  
427.000000	1.316691  
427.500000	1.298918  
428.000000	1.299301  
428.500000	1.290868  
429.000000	1.260256  
429.500000	1.255604  
430.000000	1.268874  
430.500000	1.303654  
431.000000	1.369001  
431.500000	1.412640  
432.000000	1.435317  
432.500000	1.444552  
433.000000	1.450887  
433.500000	1.427852  
434.000000	1.393643  
434.500000	1.365718  
435.000000	1.346364  
435.500000	1.371723  
436.000000	1.405404  
436.500000	1.439138  
437.000000	1.470596  
437.500000	1.495646  
438.000000	1.518553  
438.500000	1.530161  
439.000000	1.538386  
439.500000	1.536436  
440.000000	1.534065  
440.500000	1.533478  
441.000000	1.526798  
441.500000	1.509732  
442.000000	1.487135  
442.500000	1.477084  
443.000000	1.467734  
443.500000	1.472755  
444.000000	1.472256  
444.500000	1.464899  

