PE FL                   SPECTRUM    ASCII       PEDS        1.60        
  -1
PMA370~1
23/10/12
11:22:37.00
23/10/12
11:22:37.00


444.500000
1









LS55
45.00
5.00
5.00
SCAN
1
20
100
500
0
500
0
2
0
1
7
ON
900 316 
1 0 0
#HDR
-1
-1
#GR
NM

0.00002384185791015625
0.0
250.000000
0.500000
390
8
4.397056
-4.999999
#DATA
250.000000	-4.999999 
250.500000	-4.274424 
251.000000	-3.677198 
251.500000	-3.022475 
252.000000	-2.382974 
252.500000	-1.909952 
253.000000	-1.654317 
253.500000	-1.523016 
254.000000	-1.537159 
254.500000	-1.595415 
255.000000	-1.721806 
255.500000	-1.943023 
256.000000	-2.078951 
256.500000	-2.137564 
257.000000	-2.422633 
257.500000	-2.797098 
258.000000	-3.153258 
258.500000	-3.276230 
259.000000	-3.409359 
259.500000	-3.678577 
260.000000	-3.826692 
260.500000	-3.827086 
261.000000	-3.671437 
261.500000	-3.628265 
262.000000	-3.670573 
262.500000	-4.044849 
263.000000	-4.446909 
263.500000	-4.437685 
264.000000	-4.244472 
264.500000	-4.131298 
265.000000	-3.691208 
265.500000	-2.974115 
266.000000	-2.150948 
266.500000	-1.229338 
267.000000	-0.486391 
267.500000	-0.365808 
268.000000	-0.040936 
268.500000	0.364961  
269.000000	0.357711  
269.500000	0.235918  
270.000000	0.083841  
270.500000	-0.276960 
271.000000	-0.520570 
271.500000	-0.499943 
272.000000	-0.877933 
272.500000	-0.898949 
273.000000	-0.462947 
273.500000	0.003071  
274.000000	0.484121  
274.500000	0.870804  
275.000000	0.673584  
275.500000	0.173395  
276.000000	-0.312043 
276.500000	-1.327484 
277.000000	-2.257014 
277.500000	-2.955648 
278.000000	-3.241113 
278.500000	-3.157810 
279.000000	-2.741180 
279.500000	-2.607617 
280.000000	-2.427226 
280.500000	-2.016464 
281.000000	-1.888722 
281.500000	-1.799753 
282.000000	-1.602538 
282.500000	-1.183276 
283.000000	-0.810364 
283.500000	-0.356664 
284.000000	-0.050272 
284.500000	0.047195  
285.000000	0.274880  
285.500000	0.210150  
286.000000	0.066343  
286.500000	-0.070655 
287.000000	-0.100473 
287.500000	-0.395891 
288.000000	-0.457642 
288.500000	-0.260590 
289.000000	0.151809  
289.500000	0.657142  
290.000000	1.201448  
290.500000	1.544750  
291.000000	1.889993  
291.500000	2.098831  
292.000000	1.736911  
292.500000	1.109317  
293.000000	0.200907  
293.500000	-0.395058 
294.000000	-0.613322 
294.500000	-0.390896 
295.000000	-0.279862 
295.500000	0.173790  
296.000000	0.777270  
296.500000	1.353600  
297.000000	1.875589  
297.500000	1.561732  
298.000000	1.099125  
298.500000	0.851215  
299.000000	0.855740  
299.500000	0.751809  
300.000000	1.033727  
300.500000	1.520517  
301.000000	2.421997  
301.500000	3.587118  
302.000000	4.280977  
302.500000	4.397056  
303.000000	4.225367  
303.500000	3.810796  
304.000000	3.122418  
304.500000	2.548417  
305.000000	1.898648  
305.500000	1.426328  
306.000000	1.183370  
306.500000	1.003304  
307.000000	0.765247  
307.500000	0.468253  
308.000000	0.007657  
308.500000	-0.390298 
309.000000	-0.253544 
309.500000	0.185707  
310.000000	0.724766  
310.500000	1.223530  
311.000000	1.760160  
311.500000	2.133308  
312.000000	1.964286  
312.500000	1.334951  
313.000000	0.662839  
313.500000	0.232573  
314.000000	-0.039630 
314.500000	0.012048  
315.000000	0.172765  
315.500000	0.510958  
316.000000	1.140504  
316.500000	1.725307  
317.000000	1.980701  
317.500000	2.011427  
318.000000	1.999567  
318.500000	1.887795  
319.000000	1.863899  
319.500000	1.706818  
320.000000	1.559380  
320.500000	1.716947  
321.000000	1.953712  
321.500000	2.013363  
322.000000	1.938890  
322.500000	1.780297  
323.000000	1.509809  
323.500000	1.282665  
324.000000	0.946593  
324.500000	0.615808  
325.000000	0.519725  
325.500000	0.671943  
326.000000	0.944331  
326.500000	1.080578  
327.000000	1.075467  
327.500000	0.810945  
328.000000	0.398281  
328.500000	-0.170976 
329.000000	-0.694702 
329.500000	-1.056711 
330.000000	-1.187911 
330.500000	-1.091413 
331.000000	-0.895349 
331.500000	-0.630875 
332.000000	-0.547865 
332.500000	-0.560748 
333.000000	-0.707935 
333.500000	-0.772628 
334.000000	-0.792982 
334.500000	-0.833685 
335.000000	-0.722908 
335.500000	-0.504606 
336.000000	-0.186534 
336.500000	0.097292  
337.000000	0.187340  
337.500000	0.216103  
338.000000	0.262678  
338.500000	0.351657  
339.000000	0.332053  
339.500000	0.432816  
340.000000	0.735286  
340.500000	0.951369  
341.000000	1.116390  
341.500000	1.064425  
342.000000	0.941850  
342.500000	0.797851  
343.000000	0.808541  
343.500000	0.708532  
344.000000	0.763100  
344.500000	1.038433  
345.000000	1.391426  
345.500000	1.762077  
346.000000	2.020352  
346.500000	2.197642  
347.000000	2.192530  
347.500000	2.123775  
348.000000	1.878067  
348.500000	1.656439  
349.000000	1.526066  
349.500000	1.478826  
350.000000	1.428297  
350.500000	1.545602  
351.000000	1.724244  
351.500000	1.857177  
352.000000	1.857068  
352.500000	1.788949  
353.000000	1.743509  
353.500000	1.708174  
354.000000	1.587255  
354.500000	1.326959  
355.000000	1.171808  
355.500000	1.177427  
356.000000	1.306024  
356.500000	1.403773  
357.000000	1.596369  
357.500000	1.801974  
358.000000	2.125438  
358.500000	2.388631  
359.000000	2.555992  
359.500000	2.723045  
360.000000	2.885256  
360.500000	3.014157  
361.000000	3.056724  
361.500000	3.120901  
362.000000	3.101429  
362.500000	3.057679  
363.000000	2.960499  
363.500000	2.849618  
364.000000	2.727116  
364.500000	2.654632  
365.000000	2.597495  
365.500000	2.523479  
366.000000	2.551537  
366.500000	2.621756  
367.000000	2.617635  
367.500000	2.520361  
368.000000	2.404562  
368.500000	2.219233  
369.000000	2.074811  
369.500000	2.010146  
370.000000	1.882863  
370.500000	1.792818  
371.000000	1.792132  
371.500000	1.819964  
372.000000	1.802546  
372.500000	1.792823  
373.000000	1.702789  
373.500000	1.663797  
374.000000	1.806900  
374.500000	1.890895  
375.000000	1.953102  
375.500000	2.017882  
376.000000	2.131025  
376.500000	2.207004  
377.000000	2.299582  
377.500000	2.268583  
378.000000	2.220849  
378.500000	2.329188  
379.000000	2.465521  
379.500000	2.635384  
380.000000	2.687706  
380.500000	2.658890  
381.000000	2.546795  
381.500000	2.482473  
382.000000	2.309400  
382.500000	2.037027  
383.000000	1.794607  
383.500000	1.602794  
384.000000	1.567058  
384.500000	1.543476  
385.000000	1.485237  
385.500000	1.421931  
386.000000	1.478963  
386.500000	1.530248  
387.000000	1.566072  
387.500000	1.556360  
388.000000	1.532654  
388.500000	1.621757  
389.000000	1.717177  
389.500000	1.796367  
390.000000	1.851743  
390.500000	1.923924  
391.000000	1.937483  
391.500000	1.915248  
392.000000	1.792922  
392.500000	1.609594  
393.000000	1.402001  
393.500000	1.165521  
394.000000	0.961160  
394.500000	0.843419  
395.000000	0.800751  
395.500000	0.788703  
396.000000	0.869972  
396.500000	0.965453  
397.000000	1.019520  
397.500000	1.003098  
398.000000	0.848824  
398.500000	0.654069  
399.000000	0.490647  
399.500000	0.330662  
400.000000	0.166012  
400.500000	0.128826  
401.000000	0.213049  
401.500000	0.368356  
402.000000	0.573893  
402.500000	0.719372  
403.000000	0.822108  
403.500000	0.905068  
404.000000	0.951028  
404.500000	0.862393  
405.000000	0.753570  
405.500000	0.651873  
406.000000	0.578290  
406.500000	0.549604  
407.000000	0.483554  
407.500000	0.434386  
408.000000	0.410550  
408.500000	0.460949  
409.000000	0.455731  
409.500000	0.479561  
410.000000	0.499567  
410.500000	0.529618  
411.000000	0.591004  
411.500000	0.636585  
412.000000	0.646754  
412.500000	0.658046  
413.000000	0.713757  
413.500000	0.727411  
414.000000	0.754199  
414.500000	0.709667  
415.000000	0.666617  
415.500000	0.672013  
416.000000	0.701439  
416.500000	0.706567  
417.000000	0.736772  
417.500000	0.796089  
418.000000	0.836976  
418.500000	0.893631  
419.000000	0.877048  
419.500000	0.829093  
420.000000	0.768788  
420.500000	0.730925  
421.000000	0.677998  
421.500000	0.632932  
422.000000	0.590143  
422.500000	0.566706  
423.000000	0.591110  
423.500000	0.576863  
424.000000	0.574949  
424.500000	0.567852  
425.000000	0.579726  
425.500000	0.602764  
426.000000	0.620168  
426.500000	0.608620  
427.000000	0.596542  
427.500000	0.571254  
428.000000	0.524625  
428.500000	0.498904  
429.000000	0.459481  
429.500000	0.452362  
430.000000	0.472039  
430.500000	0.487658  
431.000000	0.476105  
431.500000	0.465139  
432.000000	0.449285  
432.500000	0.424253  
433.000000	0.405365  
433.500000	0.362166  
434.000000	0.339982  
434.500000	0.336100  
435.000000	0.332027  
435.500000	0.324063  
436.000000	0.328808  
436.500000	0.327870  
437.000000	0.333455  
437.500000	0.339927  
438.000000	0.331824  
438.500000	0.347150  
439.000000	0.370530  
439.500000	0.382763  
440.000000	0.395845  
440.500000	0.420507  
441.000000	0.443813  
441.500000	0.466707  
442.000000	0.477118  
442.500000	0.486849  
443.000000	0.511563  
443.500000	0.539627  
444.000000	0.553844  
444.500000	0.558000  

