PE FL                   SPECTRUM    ASCII       PEDS        1.60        
  -1
PMPPNS~3
23/10/12
11:18:35.00
23/10/12
11:18:35.00


444.500000
1









LS55
15.00
5.00
5.00
SCAN
1
20
100
500
0
500
0
2
0
1
7
ON
900 316 
1 0 0
#HDR
-1
-1
#GR
NM

0.00002384185791015625
0.0
250.000000
0.500000
390
8
2.378520
-4.443000
#DATA
250.000000	-4.443000 
250.500000	-3.232141 
251.000000	-2.298273 
251.500000	-1.834318 
252.000000	-1.530287 
252.500000	-1.460481 
253.000000	-1.409814 
253.500000	-1.560047 
254.000000	-1.476407 
254.500000	-1.438427 
255.000000	-1.277504 
255.500000	-1.428024 
256.000000	-1.890672 
256.500000	-2.423990 
257.000000	-3.144319 
257.500000	-3.644213 
258.000000	-3.869302 
258.500000	-3.786630 
259.000000	-3.638605 
259.500000	-3.024342 
260.000000	-2.524063 
260.500000	-2.023023 
261.000000	-1.702114 
261.500000	-1.671907 
262.000000	-1.646136 
262.500000	-1.539894 
263.000000	-1.458002 
263.500000	-1.650307 
264.000000	-1.446843 
264.500000	-1.055491 
265.000000	-0.599626 
265.500000	-0.357229 
266.000000	-0.443026 
266.500000	-0.687072 
267.000000	-0.883215 
267.500000	-1.455097 
268.000000	-2.337011 
268.500000	-3.006726 
269.000000	-3.306728 
269.500000	-3.512808 
270.000000	-3.596814 
270.500000	-3.521273 
271.000000	-3.259792 
271.500000	-2.718440 
272.000000	-2.559460 
272.500000	-2.661990 
273.000000	-2.819523 
273.500000	-2.793479 
274.000000	-2.971157 
274.500000	-3.107091 
275.000000	-3.020268 
275.500000	-2.651311 
276.000000	-2.028797 
276.500000	-1.645936 
277.000000	-1.526917 
277.500000	-1.797175 
278.000000	-2.051765 
278.500000	-2.580671 
279.000000	-3.086361 
279.500000	-3.404075 
280.000000	-3.530892 
280.500000	-3.306680 
281.000000	-2.732332 
281.500000	-2.172969 
282.000000	-2.056275 
282.500000	-1.994097 
283.000000	-1.998941 
283.500000	-1.925300 
284.000000	-1.659830 
284.500000	-1.267062 
285.000000	-0.836609 
285.500000	-0.152328 
286.000000	0.491290  
286.500000	0.626713  
287.000000	0.563080  
287.500000	0.044587  
288.000000	-0.592372 
288.500000	-1.300159 
289.000000	-1.947387 
289.500000	-2.533694 
290.000000	-2.662973 
290.500000	-2.589353 
291.000000	-2.345469 
291.500000	-1.640576 
292.000000	-0.883693 
292.500000	-0.098948 
293.000000	0.433634  
293.500000	0.890854  
294.000000	1.121948  
294.500000	1.177439  
295.000000	0.962371  
295.500000	0.676407  
296.000000	0.606796  
296.500000	0.521527  
297.000000	0.243062  
297.500000	0.074372  
298.000000	-0.062304 
298.500000	-0.106541 
299.000000	-0.292764 
299.500000	-0.567620 
300.000000	-0.899493 
300.500000	-0.998498 
301.000000	-1.083073 
301.500000	-1.616727 
302.000000	-2.008905 
302.500000	-2.388710 
303.000000	-2.651926 
303.500000	-3.017358 
304.000000	-3.291490 
304.500000	-3.282445 
305.000000	-2.878812 
305.500000	-2.360181 
306.000000	-2.096348 
306.500000	-1.762638 
307.000000	-1.276039 
307.500000	-0.895742 
308.000000	-0.606392 
308.500000	-0.499754 
309.000000	-0.350910 
309.500000	-0.276640 
310.000000	-0.371613 
310.500000	-0.456996 
311.000000	-0.621997 
311.500000	-0.541626 
312.000000	-0.362019 
312.500000	-0.059665 
313.000000	0.210208  
313.500000	0.765840  
314.000000	1.193307  
314.500000	1.440227  
315.000000	1.604543  
315.500000	1.602551  
316.000000	1.403003  
316.500000	1.083848  
317.000000	0.652664  
317.500000	0.300332  
318.000000	0.208414  
318.500000	0.278412  
319.000000	0.420266  
319.500000	0.642875  
320.000000	0.992555  
320.500000	1.290027  
321.000000	1.699012  
321.500000	1.929312  
322.000000	2.064399  
322.500000	2.135951  
323.000000	2.247423  
323.500000	2.311113  
324.000000	2.378520  
324.500000	2.306723  
325.000000	2.202954  
325.500000	2.167463  
326.000000	1.994441  
326.500000	1.861230  
327.000000	1.508080  
327.500000	1.070381  
328.000000	0.623372  
328.500000	0.258031  
329.000000	-0.210893 
329.500000	-0.486071 
330.000000	-0.605625 
330.500000	-0.648924 
331.000000	-0.387628 
331.500000	-0.053122 
332.000000	0.322691  
332.500000	0.736911  
333.000000	0.923028  
333.500000	0.830877  
334.000000	0.818807  
334.500000	0.710558  
335.000000	0.490432  
335.500000	0.487390  
336.000000	0.630782  
336.500000	0.983916  
337.000000	1.522706  
337.500000	1.830766  
338.000000	1.853178  
338.500000	1.824321  
339.000000	1.624717  
339.500000	1.230112  
340.000000	0.849061  
340.500000	0.586329  
341.000000	0.583786  
341.500000	0.859127  
342.000000	1.100618  
342.500000	1.262750  
343.000000	1.327331  
343.500000	1.131981  
344.000000	0.668407  
344.500000	0.181432  
345.000000	-0.162372 
345.500000	-0.387116 
346.000000	-0.390338 
346.500000	-0.199150 
347.000000	0.147894  
347.500000	0.674053  
348.000000	1.192267  
348.500000	1.456262  
349.000000	1.641071  
349.500000	1.800584  
350.000000	1.883838  
350.500000	1.853574  
351.000000	1.781019  
351.500000	1.638822  
352.000000	1.620110  
352.500000	1.613279  
353.000000	1.519808  
353.500000	1.430759  
354.000000	1.338780  
354.500000	1.301915  
355.000000	1.162806  
355.500000	1.002781  
356.000000	0.864481  
356.500000	0.832330  
357.000000	0.822904  
357.500000	0.883157  
358.000000	1.080504  
358.500000	1.247486  
359.000000	1.394790  
359.500000	1.522965  
360.000000	1.521542  
360.500000	1.524853  
361.000000	1.504426  
361.500000	1.272447  
362.000000	0.986111  
362.500000	0.832142  
363.000000	0.699832  
363.500000	0.519487  
364.000000	0.437416  
364.500000	0.381694  
365.000000	0.554920  
365.500000	0.755567  
366.000000	0.915815  
366.500000	1.036779  
367.000000	1.176954  
367.500000	1.339098  
368.000000	1.341917  
368.500000	1.309924  
369.000000	1.188272  
369.500000	1.213791  
370.000000	1.269701  
370.500000	1.319731  
371.000000	1.398143  
371.500000	1.447617  
372.000000	1.505182  
372.500000	1.533426  
373.000000	1.506094  
373.500000	1.406454  
374.000000	1.390796  
374.500000	1.387887  
375.000000	1.404671  
375.500000	1.467829  
376.000000	1.464627  
376.500000	1.443297  
377.000000	1.399577  
377.500000	1.319143  
378.000000	1.219208  
378.500000	1.134347  
379.000000	1.100488  
379.500000	1.147242  
380.000000	1.201198  
380.500000	1.245553  
381.000000	1.308913  
381.500000	1.367307  
382.000000	1.371528  
382.500000	1.384297  
383.000000	1.381453  
383.500000	1.327095  
384.000000	1.301487  
384.500000	1.298040  
385.000000	1.209734  
385.500000	1.128366  
386.000000	1.024168  
386.500000	0.867338  
387.000000	0.747987  
387.500000	0.668424  
388.000000	0.590084  
388.500000	0.554058  
389.000000	0.627992  
389.500000	0.695087  
390.000000	0.827681  
390.500000	0.975351  
391.000000	1.067130  
391.500000	1.181578  
392.000000	1.275449  
392.500000	1.320370  
393.000000	1.305193  
393.500000	1.313069  
394.000000	1.303681  
394.500000	1.283529  
395.000000	1.273652  
395.500000	1.237519  
396.000000	1.247257  
396.500000	1.259609  
397.000000	1.241401  
397.500000	1.211181  
398.000000	1.212513  
398.500000	1.268072  
399.000000	1.335015  
399.500000	1.397315  
400.000000	1.415383  
400.500000	1.446367  
401.000000	1.447589  
401.500000	1.379576  
402.000000	1.270705  
402.500000	1.153815  
403.000000	1.069978  
403.500000	1.020811  
404.000000	1.009584  
404.500000	1.018936  
405.000000	1.055149  
405.500000	1.118623  
406.000000	1.136576  
406.500000	1.127012  
407.000000	1.118349  
407.500000	1.101809  
408.000000	1.105889  
408.500000	1.128841  
409.000000	1.149435  
409.500000	1.141730  
410.000000	1.146080  
410.500000	1.105655  
411.000000	1.017036  
411.500000	0.930747  
412.000000	0.838398  
412.500000	0.758925  
413.000000	0.749988  
413.500000	0.804779  
414.000000	0.887500  
414.500000	1.005357  
415.000000	1.115581  
415.500000	1.214908  
416.000000	1.288763  
416.500000	1.286125  
417.000000	1.238554  
417.500000	1.183801  
418.000000	1.127206  
418.500000	1.099838  
419.000000	1.087011  
419.500000	1.052183  
420.000000	1.039862  
420.500000	1.050661  
421.000000	1.044405  
421.500000	1.031045  
422.000000	0.983099  
422.500000	0.927583  
423.000000	0.899410  
423.500000	0.904605  
424.000000	0.902461  
424.500000	0.914385  
425.000000	0.942530  
425.500000	0.979635  
426.000000	1.045263  
426.500000	1.068078  
427.000000	1.082746  
427.500000	1.063433  
428.000000	1.034407  
428.500000	1.002374  
429.000000	0.967109  
429.500000	0.943471  
430.000000	0.950090  
430.500000	0.991452  
431.000000	1.021579  
431.500000	1.070461  
432.000000	1.097778  
432.500000	1.095599  
433.000000	1.074517  
433.500000	1.035116  
434.000000	0.991527  
434.500000	0.951432  
435.000000	0.918527  
435.500000	0.894338  
436.000000	0.902614  
436.500000	0.927776  
437.000000	0.963620  
437.500000	0.997101  
438.000000	1.014934  
438.500000	1.027340  
439.000000	1.024262  
439.500000	1.003046  
440.000000	0.967864  
440.500000	0.957257  
441.000000	0.942718  
441.500000	0.943005  
442.000000	0.944300  
442.500000	0.950757  
443.000000	0.961418  
443.500000	0.971256  
444.000000	0.987240  
444.500000	0.977192  

