PE FL                   SPECTRUM    ASCII       PEDS        1.60        
  -1
PMPPNS~4
23/10/12
11:19:15.00
23/10/12
11:19:15.00


444.500000
1









LS55
20.00
5.00
5.00
SCAN
1
20
100
500
0
500
0
2
0
1
7
ON
900 316 
1 0 0
#HDR
-1
-1
#GR
NM

0.00002384185791015625
0.0
250.000000
0.500000
390
8
2.526044
-4.228000
#DATA
250.000000	-4.228000 
250.500000	-3.460745 
251.000000	-2.815534 
251.500000	-2.173560 
252.000000	-2.133736 
252.500000	-2.307292 
253.000000	-2.601986 
253.500000	-2.816471 
254.000000	-3.012000 
254.500000	-3.019479 
255.000000	-2.886995 
255.500000	-2.669899 
256.000000	-2.262009 
256.500000	-1.972998 
257.000000	-2.010380 
257.500000	-2.018020 
258.000000	-2.084183 
258.500000	-2.036713 
259.000000	-1.798915 
259.500000	-1.620610 
260.000000	-1.414791 
260.500000	-1.373368 
261.000000	-1.164674 
261.500000	-1.306386 
262.000000	-1.440304 
262.500000	-1.789975 
263.000000	-2.039846 
263.500000	-2.142184 
264.000000	-2.324063 
264.500000	-2.585111 
265.000000	-3.200895 
265.500000	-3.375914 
266.000000	-3.512007 
266.500000	-3.490938 
267.000000	-3.647521 
267.500000	-3.660605 
268.000000	-3.281633 
268.500000	-2.731318 
269.000000	-2.084749 
269.500000	-1.530084 
270.000000	-0.557566 
270.500000	0.560671  
271.000000	1.791682  
271.500000	2.495807  
272.000000	2.526044  
272.500000	2.234389  
273.000000	1.593236  
273.500000	0.796038  
274.000000	-0.143521 
274.500000	-0.610711 
275.000000	-0.942644 
275.500000	-0.848417 
276.000000	-0.431639 
276.500000	-0.143113 
277.000000	0.278277  
277.500000	0.524609  
278.000000	0.916129  
278.500000	1.095722  
279.000000	1.668279  
279.500000	1.996525  
280.000000	1.741576  
280.500000	1.540086  
281.000000	1.119254  
281.500000	0.413560  
282.000000	-0.487872 
282.500000	-1.078465 
283.000000	-1.707596 
283.500000	-1.754862 
284.000000	-1.443507 
284.500000	-1.223079 
285.000000	-0.805841 
285.500000	-0.244462 
286.000000	0.212861  
286.500000	0.557495  
287.000000	0.882539  
287.500000	0.583246  
288.000000	0.138190  
288.500000	-0.287123 
289.000000	-0.769791 
289.500000	-1.158110 
290.000000	-1.349811 
290.500000	-1.450183 
291.000000	-1.244663 
291.500000	-0.775166 
292.000000	-0.348439 
292.500000	0.163725  
293.000000	0.569267  
293.500000	0.961117  
294.000000	1.372864  
294.500000	1.498868  
295.000000	1.163329  
295.500000	0.823472  
296.000000	0.219759  
296.500000	-0.593186 
297.000000	-1.332555 
297.500000	-1.810892 
298.000000	-2.115753 
298.500000	-1.978354 
299.000000	-1.596293 
299.500000	-1.574749 
300.000000	-1.250510 
300.500000	-1.023585 
301.000000	-0.980106 
301.500000	-1.003200 
302.000000	-0.906416 
302.500000	-0.955000 
303.000000	-0.851164 
303.500000	-0.576815 
304.000000	-0.821144 
304.500000	-1.140515 
305.000000	-1.166939 
305.500000	-1.222974 
306.000000	-1.333674 
306.500000	-1.220818 
307.000000	-1.006118 
307.500000	-0.751356 
308.000000	-0.124505 
308.500000	0.329212  
309.000000	0.377889  
309.500000	0.256942  
310.000000	0.296424  
310.500000	0.212972  
311.000000	0.104756  
311.500000	0.111114  
312.000000	0.123575  
312.500000	0.300490  
313.000000	0.786076  
313.500000	1.195126  
314.000000	1.209109  
314.500000	1.474268  
315.000000	1.528933  
315.500000	1.311725  
316.000000	0.990074  
316.500000	0.697432  
317.000000	0.313504  
317.500000	0.178675  
318.000000	0.329111  
318.500000	0.217265  
319.000000	0.434551  
319.500000	0.629465  
320.000000	0.764677  
320.500000	0.793794  
321.000000	0.887982  
321.500000	0.892588  
322.000000	0.854445  
322.500000	1.044016  
323.000000	1.136855  
323.500000	1.409678  
324.000000	1.597764  
324.500000	1.562949  
325.000000	1.543118  
325.500000	1.393835  
326.000000	1.176029  
326.500000	0.853842  
327.000000	0.808027  
327.500000	0.619278  
328.000000	0.586402  
328.500000	0.575986  
329.000000	0.392069  
329.500000	0.285776  
330.000000	0.032578  
330.500000	-0.226134 
331.000000	-0.466068 
331.500000	-0.539708 
332.000000	-0.761087 
332.500000	-0.890106 
333.000000	-0.964659 
333.500000	-1.039864 
334.000000	-0.939229 
334.500000	-0.879602 
335.000000	-0.732054 
335.500000	-0.428449 
336.000000	-0.063206 
336.500000	0.101890  
337.000000	0.318520  
337.500000	0.453289  
338.000000	0.561698  
338.500000	0.576939  
339.000000	0.446351  
339.500000	0.420837  
340.000000	0.479755  
340.500000	0.511603  
341.000000	0.291393  
341.500000	0.149684  
342.000000	0.054263  
342.500000	0.050109  
343.000000	-0.008648 
343.500000	-0.060392 
344.000000	0.084715  
344.500000	0.367956  
345.000000	0.685186  
345.500000	0.860865  
346.000000	0.958585  
346.500000	0.919686  
347.000000	0.897260  
347.500000	0.617409  
348.000000	0.155086  
348.500000	-0.270192 
349.000000	-0.539740 
349.500000	-0.614109 
350.000000	-0.485177 
350.500000	-0.200894 
351.000000	0.224709  
351.500000	0.839163  
352.000000	1.438275  
352.500000	1.816178  
353.000000	2.076652  
353.500000	2.196829  
354.000000	2.203267  
354.500000	2.123486  
355.000000	1.868229  
355.500000	1.519893  
356.000000	1.230261  
356.500000	1.085006  
357.000000	0.888091  
357.500000	0.908832  
358.000000	0.966156  
358.500000	1.068425  
359.000000	1.218600  
359.500000	1.280751  
360.000000	1.266473  
360.500000	1.092657  
361.000000	0.799493  
361.500000	0.326166  
362.000000	0.049746  
362.500000	-0.227239 
363.000000	-0.428152 
363.500000	-0.478717 
364.000000	-0.453129 
364.500000	-0.249226 
365.000000	0.075803  
365.500000	0.352977  
366.000000	0.508801  
366.500000	0.730492  
367.000000	0.844655  
367.500000	0.865256  
368.000000	0.865817  
368.500000	0.825677  
369.000000	0.861933  
369.500000	0.973653  
370.000000	1.098235  
370.500000	1.252083  
371.000000	1.394612  
371.500000	1.469956  
372.000000	1.441121  
372.500000	1.347920  
373.000000	1.229804  
373.500000	1.133200  
374.000000	0.977171  
374.500000	0.846046  
375.000000	0.787506  
375.500000	0.756621  
376.000000	0.797823  
376.500000	0.870325  
377.000000	0.904052  
377.500000	0.926327  
378.000000	1.017925  
378.500000	1.033754  
379.000000	1.056338  
379.500000	1.015356  
380.000000	0.926824  
380.500000	0.853527  
381.000000	0.823499  
381.500000	0.815070  
382.000000	0.765768  
382.500000	0.749410  
383.000000	0.732960  
383.500000	0.786258  
384.000000	0.778801  
384.500000	0.746258  
385.000000	0.740148  
385.500000	0.765021  
386.000000	0.849167  
386.500000	0.913027  
387.000000	0.923997  
387.500000	0.915004  
388.000000	0.937573  
388.500000	0.889692  
389.000000	0.788398  
389.500000	0.713162  
390.000000	0.620504  
390.500000	0.583229  
391.000000	0.614898  
391.500000	0.653276  
392.000000	0.712050  
392.500000	0.846223  
393.000000	0.970100  
393.500000	1.090284  
394.000000	1.238899  
394.500000	1.299797  
395.000000	1.291509  
395.500000	1.273149  
396.000000	1.229279  
396.500000	1.126481  
397.000000	1.051617  
397.500000	0.982754  
398.000000	0.973049  
398.500000	1.037257  
399.000000	1.064478  
399.500000	1.068549  
400.000000	1.078009  
400.500000	1.109278  
401.000000	1.121841  
401.500000	1.178506  
402.000000	1.232077  
402.500000	1.325094  
403.000000	1.433782  
403.500000	1.481412  
404.000000	1.465464  
404.500000	1.358914  
405.000000	1.214923  
405.500000	1.032919  
406.000000	0.900566  
406.500000	0.823020  
407.000000	0.844726  
407.500000	0.919176  
408.000000	1.038162  
408.500000	1.190590  
409.000000	1.261025  
409.500000	1.252949  
410.000000	1.168220  
410.500000	1.045420  
411.000000	0.905588  
411.500000	0.778778  
412.000000	0.639223  
412.500000	0.565466  
413.000000	0.584407  
413.500000	0.635336  
414.000000	0.705507  
414.500000	0.767138  
415.000000	0.830031  
415.500000	0.895666  
416.000000	0.962457  
416.500000	0.983569  
417.000000	1.010471  
417.500000	1.034191  
418.000000	1.087056  
418.500000	1.127581  
419.000000	1.125215  
419.500000	1.082412  
420.000000	1.005186  
420.500000	0.916635  
421.000000	0.804662  
421.500000	0.716644  
422.000000	0.625698  
422.500000	0.603809  
423.000000	0.649686  
423.500000	0.741003  
424.000000	0.855068  
424.500000	0.969194  
425.000000	1.043457  
425.500000	1.088278  
426.000000	1.111394  
426.500000	1.081381  
427.000000	1.054611  
427.500000	1.027255  
428.000000	1.012815  
428.500000	1.019479  
429.000000	1.025181  
429.500000	1.003226  
430.000000	0.997524  
430.500000	0.989655  
431.000000	0.954593  
431.500000	0.916797  
432.000000	0.867691  
432.500000	0.830838  
433.000000	0.822841  
433.500000	0.819142  
434.000000	0.805676  
434.500000	0.823006  
435.000000	0.851882  
435.500000	0.866931  
436.000000	0.890329  
436.500000	0.909023  
437.000000	0.921981  
437.500000	0.931593  
438.000000	0.912381  
438.500000	0.876854  
439.000000	0.846155  
439.500000	0.820608  
440.000000	0.791453  
440.500000	0.782576  
441.000000	0.798160  
441.500000	0.809831  
442.000000	0.817588  
442.500000	0.812745  
443.000000	0.798201  
443.500000	0.770050  
444.000000	0.728604  
444.500000	0.688884  

