PE FL                   SPECTRUM    ASCII       PEDS        1.60        
  -1
PM30FA~1
23/10/12
12:05:13.00
23/10/12
12:05:13.00


444.500000
1









LS55
50.00
5.00
5.00
SCAN
1
20
100
500
0
500
0
2
0
1
7
ON
500 450 
1 0 0
#HDR
-1
-1
#GR
NM

0.00002384185791015625
0.0
250.000000
0.500000
390
8
15.910017
-5.000000
#DATA
250.000000	-5.000000 
250.500000	-3.264275 
251.000000	-2.038283 
251.500000	-1.607202 
252.000000	-1.508123 
252.500000	-2.139333 
253.000000	-2.833153 
253.500000	-3.711526 
254.000000	-4.344083 
254.500000	-4.642880 
255.000000	-4.498913 
255.500000	-4.287436 
256.000000	-4.241021 
256.500000	-3.986602 
257.000000	-3.978728 
257.500000	-3.821139 
258.000000	-3.447438 
258.500000	-3.006828 
259.000000	-2.650535 
259.500000	-2.388073 
260.000000	-2.103722 
260.500000	-1.804828 
261.000000	-1.506072 
261.500000	-1.477534 
262.000000	-1.493102 
262.500000	-1.436100 
263.000000	-1.333611 
263.500000	-1.308823 
264.000000	-1.596528 
264.500000	-2.254762 
265.000000	-2.829409 
265.500000	-3.065957 
266.000000	-3.179089 
266.500000	-3.182382 
267.000000	-2.979938 
267.500000	-2.581904 
268.000000	-1.966687 
268.500000	-1.661897 
269.000000	-1.822605 
269.500000	-2.339042 
270.000000	-2.989414 
270.500000	-3.383002 
271.000000	-3.891707 
271.500000	-4.019294 
272.000000	-3.729980 
272.500000	-3.072711 
273.000000	-2.144785 
273.500000	-1.303761 
274.000000	-0.762809 
274.500000	-0.609773 
275.000000	-0.456382 
275.500000	-0.925209 
276.000000	-1.300340 
276.500000	-1.427361 
277.000000	-1.416728 
277.500000	-1.181481 
278.000000	-0.914199 
278.500000	-0.326535 
279.000000	0.198524  
279.500000	0.742196  
280.000000	0.721439  
280.500000	0.327908  
281.000000	0.091551  
281.500000	-0.139458 
282.000000	-0.262522 
282.500000	-0.775631 
283.000000	-1.070368 
283.500000	-0.958690 
284.000000	-0.771353 
284.500000	-0.334905 
285.000000	-0.116125 
285.500000	0.351861  
286.000000	1.165211  
286.500000	2.034398  
287.000000	2.402585  
287.500000	2.493083  
288.000000	2.595261  
288.500000	2.367004  
289.000000	2.348042  
289.500000	1.940423  
290.000000	1.371515  
290.500000	0.951605  
291.000000	0.475272  
291.500000	0.209502  
292.000000	-0.052940 
292.500000	0.065664  
293.000000	0.202697  
293.500000	0.895145  
294.000000	2.049066  
294.500000	3.638324  
295.000000	5.322471  
295.500000	6.473798  
296.000000	7.257343  
296.500000	7.435826  
297.000000	7.188259  
297.500000	6.345749  
298.000000	5.198340  
298.500000	4.253367  
299.000000	3.925551  
299.500000	4.196333  
300.000000	4.903524  
300.500000	5.936748  
301.000000	7.144120  
301.500000	8.471079  
302.000000	9.604017  
302.500000	10.249634 
303.000000	10.610512 
303.500000	10.689611 
304.000000	10.499183 
304.500000	10.276789 
305.000000	9.714961  
305.500000	9.026660  
306.000000	8.657866  
306.500000	8.482313  
307.000000	8.618425  
307.500000	9.286176  
308.000000	10.231391 
308.500000	11.354081 
309.000000	12.931382 
309.500000	14.405542 
310.000000	15.312788 
310.500000	15.881725 
311.000000	15.910017 
311.500000	15.710442 
312.000000	15.245650 
312.500000	14.588604 
313.000000	13.811562 
313.500000	13.311330 
314.000000	13.192704 
314.500000	12.837642 
315.000000	12.536252 
315.500000	12.237398 
316.000000	12.152982 
316.500000	12.116783 
317.000000	12.169336 
317.500000	12.207311 
318.000000	12.221449 
318.500000	12.542058 
319.000000	12.737983 
319.500000	12.627450 
320.000000	12.388899 
320.500000	12.154372 
321.000000	11.823232 
321.500000	11.451042 
322.000000	11.241449 
322.500000	11.056057 
323.000000	11.203729 
323.500000	11.269357 
324.000000	11.097950 
324.500000	10.771915 
325.000000	10.275922 
325.500000	9.747012  
326.000000	9.014880  
326.500000	8.090703  
327.000000	7.302336  
327.500000	6.864643  
328.000000	6.571591  
328.500000	6.417816  
329.000000	6.285702  
329.500000	6.170698  
330.000000	6.105231  
330.500000	6.004700  
331.000000	5.618357  
331.500000	5.395969  
332.000000	5.378552  
332.500000	5.246656  
333.000000	5.223573  
333.500000	5.239079  
334.000000	5.290131  
334.500000	5.412053  
335.000000	5.485834  
335.500000	5.195883  
336.000000	5.013155  
336.500000	4.899345  
337.000000	4.645293  
337.500000	4.373174  
338.000000	4.074777  
338.500000	3.855552  
339.000000	3.881252  
339.500000	3.964911  
340.000000	4.131177  
340.500000	4.458214  
341.000000	4.792808  
341.500000	5.064203  
342.000000	5.119349  
342.500000	5.092780  
343.000000	4.810112  
343.500000	4.605469  
344.000000	4.338505  
344.500000	4.192832  
345.000000	4.199887  
345.500000	4.358181  
346.000000	4.633460  
346.500000	4.806737  
347.000000	5.168167  
347.500000	5.383988  
348.000000	5.486000  
348.500000	5.483971  
349.000000	5.427644  
349.500000	5.320631  
350.000000	5.249631  
350.500000	5.265891  
351.000000	5.078309  
351.500000	5.156232  
352.000000	5.331354  
352.500000	5.318643  
353.000000	5.421674  
353.500000	5.526351  
354.000000	5.479839  
354.500000	5.420394  
355.000000	5.424401  
355.500000	5.383004  
356.000000	5.460884  
356.500000	5.674043  
357.000000	5.709672  
357.500000	5.832820  
358.000000	6.094183  
358.500000	6.297710  
359.000000	6.387480  
359.500000	6.480516  
360.000000	6.535546  
360.500000	6.539724  
361.000000	6.552340  
361.500000	6.468048  
362.000000	6.391883  
362.500000	6.451042  
363.000000	6.527457  
363.500000	6.602370  
364.000000	6.688057  
364.500000	6.765128  
365.000000	6.797634  
365.500000	6.726770  
366.000000	6.610397  
366.500000	6.430098  
367.000000	6.310183  
367.500000	6.209759  
368.000000	6.143694  
368.500000	6.166623  
369.000000	6.205985  
369.500000	6.211677  
370.000000	6.214760  
370.500000	6.225967  
371.000000	6.172703  
371.500000	6.153102  
372.000000	6.156320  
372.500000	6.207595  
373.000000	6.302860  
373.500000	6.384057  
374.000000	6.385326  
374.500000	6.424925  
375.000000	6.470331  
375.500000	6.378816  
376.000000	6.246228  
376.500000	6.127382  
377.000000	6.038724  
377.500000	5.969391  
378.000000	5.896634  
378.500000	5.748317  
379.000000	5.686743  
379.500000	5.727150  
380.000000	5.747171  
380.500000	5.741856  
381.000000	5.716138  
381.500000	5.711328  
382.000000	5.698929  
382.500000	5.644826  
383.000000	5.554664  
383.500000	5.511372  
384.000000	5.494534  
384.500000	5.490206  
385.000000	5.460470  
385.500000	5.390765  
386.000000	5.342473  
386.500000	5.287741  
387.000000	5.191388  
387.500000	5.088889  
388.000000	4.999004  
388.500000	4.909850  
389.000000	4.868921  
389.500000	4.846463  
390.000000	4.804417  
390.500000	4.799998  
391.000000	4.829990  
391.500000	4.832237  
392.000000	4.837138  
392.500000	4.869920  
393.000000	4.887768  
393.500000	4.922345  
394.000000	4.941455  
394.500000	4.938495  
395.000000	4.892765  
395.500000	4.833422  
396.000000	4.712776  
396.500000	4.549909  
397.000000	4.406350  
397.500000	4.290388  
398.000000	4.197937  
398.500000	4.133779  
399.000000	4.144054  
399.500000	4.149878  
400.000000	4.190028  
400.500000	4.186872  
401.000000	4.135858  
401.500000	4.072870  
402.000000	3.991395  
402.500000	3.889846  
403.000000	3.772320  
403.500000	3.751484  
404.000000	3.743789  
404.500000	3.777388  
405.000000	3.810714  
405.500000	3.831546  
406.000000	3.857718  
406.500000	3.874462  
407.000000	3.842559  
407.500000	3.742279  
408.000000	3.665598  
408.500000	3.576923  
409.000000	3.510531  
409.500000	3.447672  
410.000000	3.403122  
410.500000	3.394511  
411.000000	3.426718  
411.500000	3.462030  
412.000000	3.492891  
412.500000	3.529489  
413.000000	3.569946  
413.500000	3.612723  
414.000000	3.624042  
414.500000	3.614145  
415.000000	3.555773  
415.500000	3.496122  
416.000000	3.407074  
416.500000	3.316700  
417.000000	3.210854  
417.500000	3.093779  
418.000000	3.021074  
418.500000	2.962797  
419.000000	2.938167  
419.500000	2.913736  
420.000000	2.908346  
420.500000	2.905324  
421.000000	2.908594  
421.500000	2.883216  
422.000000	2.808342  
422.500000	2.737755  
423.000000	2.628426  
423.500000	2.512801  
424.000000	2.401032  
424.500000	2.322425  
425.000000	2.277518  
425.500000	2.275618  
426.000000	2.295334  
426.500000	2.321023  
427.000000	2.381708  
427.500000	2.430261  
428.000000	2.452680  
428.500000	2.451508  
429.000000	2.437367  
429.500000	2.380948  
430.000000	2.325615  
430.500000	2.259186  
431.000000	2.190640  
431.500000	2.140563  
432.000000	2.100618  
432.500000	2.078055  
433.000000	2.070371  
433.500000	2.076779  
434.000000	2.049736  
434.500000	2.013675  
435.000000	1.982150  
435.500000	1.953893  
436.000000	1.942156  
436.500000	1.930763  
437.000000	1.925184  
437.500000	1.936579  
438.000000	1.956920  
438.500000	1.946217  
439.000000	1.903893  
439.500000	1.850049  
440.000000	1.780299  
440.500000	1.729573  
441.000000	1.687726  
441.500000	1.654422  
442.000000	1.639958  
442.500000	1.640934  
443.000000	1.651214  
443.500000	1.653739  
444.000000	1.642064  
444.500000	1.605268  

