PE FL                   SPECTRUM    ASCII       PEDS        1.60        
  -1
PM2023~1
23/10/12
12:00:29.00
23/10/12
12:00:29.00


444.500000
1









LS55
15.00
5.00
5.00
SCAN
1
20
100
500
0
500
0
2
0
1
7
ON
500 450 
1 0 0
#HDR
-1
-1
#GR
NM

0.00002384185791015625
0.0
250.000000
0.500000
390
8
4.765493
-4.816174
#DATA
250.000000	-0.000000 
250.500000	-1.085247 
251.000000	-2.041253 
251.500000	-2.517470 
252.000000	-2.435836 
252.500000	-1.722480 
253.000000	-1.075765 
253.500000	-0.746971 
254.000000	-0.867626 
254.500000	-1.008741 
255.000000	-1.326989 
255.500000	-1.600658 
256.000000	-1.836143 
256.500000	-1.762514 
257.000000	-1.462140 
257.500000	-1.142764 
258.000000	-1.016620 
258.500000	-1.312563 
259.000000	-1.490613 
259.500000	-1.896052 
260.000000	-2.221640 
260.500000	-2.549759 
261.000000	-2.739905 
261.500000	-3.034773 
262.000000	-3.454890 
262.500000	-3.597689 
263.000000	-3.538359 
263.500000	-3.086594 
264.000000	-2.731779 
264.500000	-2.233157 
265.000000	-1.659859 
265.500000	-1.002869 
266.000000	-0.748377 
266.500000	-1.399491 
267.000000	-2.244029 
267.500000	-2.929963 
268.000000	-3.384036 
268.500000	-3.766947 
269.000000	-3.890476 
269.500000	-3.757644 
270.000000	-3.369096 
270.500000	-2.887884 
271.000000	-2.779525 
271.500000	-2.839876 
272.000000	-2.761134 
272.500000	-2.577426 
273.000000	-2.443511 
273.500000	-2.315802 
274.000000	-2.258168 
274.500000	-2.348617 
275.000000	-2.609157 
275.500000	-3.049144 
276.000000	-3.793632 
276.500000	-4.427279 
277.000000	-4.707132 
277.500000	-4.816174 
278.000000	-4.582004 
278.500000	-4.060369 
279.000000	-3.689070 
279.500000	-3.186872 
280.000000	-2.638649 
280.500000	-2.331914 
281.000000	-2.215508 
281.500000	-1.936455 
282.000000	-1.527244 
282.500000	-0.924141 
283.000000	-0.121638 
283.500000	0.262257  
284.000000	0.636050  
284.500000	1.018735  
285.000000	1.117984  
285.500000	0.830447  
286.000000	0.317241  
286.500000	-0.272088 
287.000000	-0.803333 
287.500000	-1.135419 
288.000000	-1.697251 
288.500000	-2.163447 
289.000000	-2.568056 
289.500000	-3.015316 
290.000000	-3.469977 
290.500000	-3.797647 
291.000000	-3.647617 
291.500000	-3.101689 
292.000000	-2.286471 
292.500000	-1.430233 
293.000000	-0.394801 
293.500000	0.579830  
294.000000	0.928826  
294.500000	0.759838  
295.000000	0.288815  
295.500000	-0.082664 
296.000000	-0.261785 
296.500000	-0.258945 
297.000000	-0.162885 
297.500000	0.363719  
298.000000	1.055797  
298.500000	1.560442  
299.000000	1.510819  
299.500000	1.003190  
300.000000	0.347031  
300.500000	-0.165865 
301.000000	-0.440331 
301.500000	-0.553712 
302.000000	-0.216922 
302.500000	0.165764  
303.000000	0.685046  
303.500000	1.057428  
304.000000	1.334886  
304.500000	1.322134  
305.000000	1.120164  
305.500000	0.754661  
306.000000	0.309374  
306.500000	0.068254  
307.000000	-0.255083 
307.500000	-0.302949 
308.000000	-0.245278 
308.500000	0.051876  
309.000000	0.442567  
309.500000	0.753883  
310.000000	1.089915  
310.500000	1.391040  
311.000000	1.396902  
311.500000	1.236274  
312.000000	1.114046  
312.500000	1.057852  
313.000000	1.044369  
313.500000	1.220737  
314.000000	1.398764  
314.500000	2.060178  
315.000000	2.833840  
315.500000	3.237555  
316.000000	3.276495  
316.500000	3.231308  
317.000000	3.474263  
317.500000	3.483784  
318.000000	3.261032  
318.500000	2.657455  
319.000000	2.473521  
319.500000	2.603810  
320.000000	2.704836  
320.500000	2.584816  
321.000000	2.413622  
321.500000	2.737235  
322.000000	3.154242  
322.500000	3.551102  
323.000000	3.758111  
323.500000	4.143219  
324.000000	4.512465  
324.500000	4.725815  
325.000000	4.468075  
325.500000	3.821027  
326.000000	3.216799  
326.500000	2.635276  
327.000000	2.142797  
327.500000	1.904338  
328.000000	1.900818  
328.500000	2.200975  
329.000000	2.838826  
329.500000	3.485114  
330.000000	3.993251  
330.500000	4.390201  
331.000000	4.648339  
331.500000	4.764349  
332.000000	4.765493  
332.500000	4.669212  
333.000000	4.458334  
333.500000	4.447294  
334.000000	4.497274  
334.500000	4.527651  
335.000000	4.452713  
335.500000	4.367081  
336.000000	4.400835  
336.500000	4.447778  
337.000000	4.356578  
337.500000	4.146495  
338.000000	3.990320  
338.500000	3.866555  
339.000000	3.679486  
339.500000	3.338542  
340.000000	2.861887  
340.500000	2.615999  
341.000000	2.501411  
341.500000	2.438997  
342.000000	2.500532  
342.500000	2.586495  
343.000000	2.630766  
343.500000	2.664745  
344.000000	2.525881  
344.500000	2.111011  
345.000000	1.601814  
345.500000	1.119849  
346.000000	0.704509  
346.500000	0.504223  
347.000000	0.489194  
347.500000	0.679125  
348.000000	1.054283  
348.500000	1.548502  
349.000000	2.030496  
349.500000	2.337836  
350.000000	2.553810  
350.500000	2.744275  
351.000000	2.891796  
351.500000	2.980116  
352.000000	3.049171  
352.500000	3.119981  
353.000000	3.209798  
353.500000	3.379507  
354.000000	3.280816  
354.500000	3.018959  
355.000000	2.736711  
355.500000	2.401191  
356.000000	1.961337  
356.500000	1.627342  
357.000000	1.385378  
357.500000	1.261388  
358.000000	1.419846  
358.500000	1.655304  
359.000000	1.840104  
359.500000	1.987113  
360.000000	2.200569  
360.500000	2.367420  
361.000000	2.532015  
361.500000	2.609680  
362.000000	2.629586  
362.500000	2.586145  
363.000000	2.572599  
363.500000	2.520550  
364.000000	2.339967  
364.500000	2.110932  
365.000000	1.930689  
365.500000	1.807496  
366.000000	1.709902  
366.500000	1.676926  
367.000000	1.601973  
367.500000	1.586242  
368.000000	1.683912  
368.500000	1.792821  
369.000000	1.789350  
369.500000	1.817843  
370.000000	1.829189  
370.500000	1.813140  
371.000000	1.852978  
371.500000	1.904317  
372.000000	2.047367  
372.500000	2.230372  
373.000000	2.456920  
373.500000	2.568984  
374.000000	2.666805  
374.500000	2.706776  
375.000000	2.642490  
375.500000	2.468412  
376.000000	2.222591  
376.500000	2.008254  
377.000000	1.835538  
377.500000	1.715693  
378.000000	1.592992  
378.500000	1.514067  
379.000000	1.524235  
379.500000	1.532382  
380.000000	1.460962  
380.500000	1.385993  
381.000000	1.345470  
381.500000	1.336874  
382.000000	1.390764  
382.500000	1.457212  
383.000000	1.562642  
383.500000	1.784064  
384.000000	2.029912  
384.500000	2.103259  
385.000000	2.154099  
385.500000	2.143609  
386.000000	2.039678  
386.500000	1.860375  
387.000000	1.634319  
387.500000	1.500996  
388.000000	1.550532  
388.500000	1.780999  
389.000000	1.940198  
389.500000	2.110597  
390.000000	2.320376  
390.500000	2.496249  
391.000000	2.567423  
391.500000	2.438598  
392.000000	2.186588  
392.500000	1.949982  
393.000000	1.834213  
393.500000	1.700096  
394.000000	1.588226  
394.500000	1.571572  
395.000000	1.606594  
395.500000	1.721088  
396.000000	1.791741  
396.500000	1.810991  
397.000000	1.818026  
397.500000	1.859554  
398.000000	1.883477  
398.500000	1.865883  
399.000000	1.877709  
399.500000	1.823486  
400.000000	1.812236  
400.500000	1.819051  
401.000000	1.822808  
401.500000	1.821819  
402.000000	1.869413  
402.500000	1.915989  
403.000000	1.959582  
403.500000	2.078448  
404.000000	2.143464  
404.500000	2.207973  
405.000000	2.205979  
405.500000	2.203157  
406.000000	2.156436  
406.500000	2.104579  
407.000000	2.024716  
407.500000	1.967239  
408.000000	1.963092  
408.500000	2.002994  
409.000000	2.142733  
409.500000	2.248783  
410.000000	2.365340  
410.500000	2.445916  
411.000000	2.489048  
411.500000	2.479126  
412.000000	2.431139  
412.500000	2.368820  
413.000000	2.283254  
413.500000	2.252084  
414.000000	2.181889  
414.500000	2.105036  
415.000000	2.035054  
415.500000	1.937632  
416.000000	1.836050  
416.500000	1.732142  
417.000000	1.656918  
417.500000	1.613753  
418.000000	1.645724  
418.500000	1.720207  
419.000000	1.804061  
419.500000	1.885175  
420.000000	1.940891  
420.500000	1.989993  
421.000000	1.990787  
421.500000	1.946139  
422.000000	1.885928  
422.500000	1.826175  
423.000000	1.764427  
423.500000	1.709936  
424.000000	1.666429  
424.500000	1.620187  
425.000000	1.599275  
425.500000	1.613244  
426.000000	1.585460  
426.500000	1.561596  
427.000000	1.559706  
427.500000	1.551142  
428.000000	1.550418  
428.500000	1.575908  
429.000000	1.594431  
429.500000	1.619366  
430.000000	1.652882  
430.500000	1.649943  
431.000000	1.650579  
431.500000	1.632644  
432.000000	1.582710  
432.500000	1.498080  
433.000000	1.435367  
433.500000	1.371611  
434.000000	1.319738  
434.500000	1.272604  
435.000000	1.238067  
435.500000	1.234974  
436.000000	1.238091  
436.500000	1.244157  
437.000000	1.229591  
437.500000	1.224354  
438.000000	1.230993  
438.500000	1.237560  
439.000000	1.224774  
439.500000	1.227474  
440.000000	1.236200  
440.500000	1.244537  
441.000000	1.264579  
441.500000	1.276488  
442.000000	1.297942  
442.500000	1.341422  
443.000000	1.373838  
443.500000	1.389266  
444.000000	1.411477  
444.500000	1.408081  

