PE FL                   SPECTRUM    ASCII       PEDS        1.60        
  -1
PM2033~1
23/10/12
12:01:10.00
23/10/12
12:01:10.00


444.500000
1









LS55
20.00
5.00
5.00
SCAN
1
20
100
500
0
500
0
2
0
1
7
ON
500 450 
1 0 0
#HDR
-1
-1
#GR
NM

0.00002384185791015625
0.0
250.000000
0.500000
390
8
12.549000
-5.175344
#DATA
250.000000	12.549000 
250.500000	6.592714  
251.000000	1.599536  
251.500000	-1.950810 
252.000000	-3.967691 
252.500000	-4.684562 
253.000000	-4.300739 
253.500000	-3.406383 
254.000000	-2.796207 
254.500000	-2.626722 
255.000000	-2.854022 
255.500000	-3.082237 
256.000000	-3.679141 
256.500000	-4.187655 
257.000000	-4.374930 
257.500000	-4.322620 
258.000000	-4.063527 
258.500000	-3.802433 
259.000000	-3.346035 
259.500000	-2.740930 
260.000000	-2.033711 
260.500000	-1.811818 
261.000000	-1.936364 
261.500000	-2.144600 
262.000000	-2.632959 
262.500000	-3.362505 
263.000000	-4.131490 
263.500000	-4.719447 
264.000000	-5.055235 
264.500000	-5.175344 
265.000000	-5.162131 
265.500000	-4.995297 
266.000000	-4.567266 
266.500000	-4.143418 
267.000000	-3.762087 
267.500000	-3.739603 
268.000000	-3.795672 
268.500000	-3.654431 
269.000000	-3.454006 
269.500000	-3.557400 
270.000000	-3.161937 
270.500000	-2.606997 
271.000000	-1.614392 
271.500000	-0.448860 
272.000000	0.429784  
272.500000	1.097942  
273.000000	1.697159  
273.500000	2.187278  
274.000000	1.465048  
274.500000	0.930582  
275.000000	0.167608  
275.500000	-0.506084 
276.000000	-1.116399 
276.500000	-1.660994 
277.000000	-1.980528 
277.500000	-2.088991 
278.000000	-1.443425 
278.500000	-1.532312 
279.000000	-1.005453 
279.500000	-0.321801 
280.000000	0.353734  
280.500000	0.684028  
281.000000	0.690717  
281.500000	0.507830  
282.000000	0.130775  
282.500000	-0.057448 
283.000000	-0.691545 
283.500000	-1.021212 
284.000000	-0.894223 
284.500000	-0.487691 
285.000000	0.030706  
285.500000	0.893999  
286.000000	1.746797  
286.500000	2.307053  
287.000000	2.629005  
287.500000	2.503951  
288.000000	2.333645  
288.500000	2.139432  
289.000000	1.861382  
289.500000	1.069532  
290.000000	0.682005  
290.500000	0.396772  
291.000000	0.136871  
291.500000	-0.410558 
292.000000	-1.165148 
292.500000	-1.608581 
293.000000	-1.833131 
293.500000	-1.804882 
294.000000	-2.055903 
294.500000	-1.539004 
295.000000	-0.633123 
295.500000	0.683000  
296.000000	1.793727  
296.500000	2.391326  
297.000000	2.658712  
297.500000	2.496807  
298.000000	1.980074  
298.500000	0.974901  
299.000000	0.445778  
299.500000	0.267057  
300.000000	0.845988  
300.500000	1.533406  
301.000000	2.278990  
301.500000	2.998743  
302.000000	3.524641  
302.500000	3.514750  
303.000000	3.069156  
303.500000	2.417665  
304.000000	1.755437  
304.500000	1.445524  
305.000000	1.135804  
305.500000	0.706454  
306.000000	0.378154  
306.500000	0.197058  
307.000000	-0.027539 
307.500000	-0.030639 
308.000000	-0.144428 
308.500000	-0.077114 
309.000000	0.255420  
309.500000	1.007793  
310.000000	1.427863  
310.500000	1.915219  
311.000000	2.359377  
311.500000	2.535811  
312.000000	2.809326  
312.500000	2.860883  
313.000000	2.956200  
313.500000	2.959197  
314.000000	3.379101  
314.500000	3.586280  
315.000000	4.100662  
315.500000	4.725709  
316.000000	5.302613  
316.500000	5.791694  
317.000000	5.920808  
317.500000	5.894965  
318.000000	5.565091  
318.500000	5.225486  
319.000000	4.714132  
319.500000	4.501034  
320.000000	4.476458  
320.500000	4.805568  
321.000000	5.488915  
321.500000	6.090612  
322.000000	6.573633  
322.500000	7.148337  
323.000000	7.499570  
323.500000	7.484952  
324.000000	7.406745  
324.500000	7.029111  
325.000000	6.783662  
325.500000	6.770788  
326.000000	6.806991  
326.500000	6.763835  
327.000000	6.930195  
327.500000	7.059784  
328.000000	7.093319  
328.500000	7.057261  
329.000000	6.755174  
329.500000	6.508610  
330.000000	6.355253  
330.500000	6.182742  
331.000000	5.854182  
331.500000	5.684463  
332.000000	5.652837  
332.500000	5.659686  
333.000000	5.576232  
333.500000	5.180172  
334.000000	4.739455  
334.500000	4.318291  
335.000000	3.846007  
335.500000	3.301603  
336.000000	2.751455  
336.500000	2.444403  
337.000000	2.328366  
337.500000	2.419693  
338.000000	2.496972  
338.500000	2.550718  
339.000000	2.675866  
339.500000	2.845308  
340.000000	2.985819  
340.500000	2.949791  
341.000000	2.921959  
341.500000	2.807706  
342.000000	2.817529  
342.500000	2.796879  
343.000000	2.636687  
343.500000	2.433525  
344.000000	2.283054  
344.500000	2.281158  
345.000000	2.335149  
345.500000	2.458964  
346.000000	2.550714  
346.500000	2.736221  
347.000000	2.918485  
347.500000	3.013487  
348.000000	2.958256  
348.500000	2.816802  
349.000000	2.652728  
349.500000	2.518057  
350.000000	2.252590  
350.500000	1.943466  
351.000000	1.765629  
351.500000	1.750168  
352.000000	1.862503  
352.500000	2.017822  
353.000000	2.059489  
353.500000	2.009820  
354.000000	2.034711  
354.500000	1.947936  
355.000000	1.825825  
355.500000	1.733056  
356.000000	1.699183  
356.500000	1.831465  
357.000000	2.083856  
357.500000	2.277877  
358.000000	2.377596  
358.500000	2.504383  
359.000000	2.510657  
359.500000	2.521673  
360.000000	2.450259  
360.500000	2.331513  
361.000000	2.258305  
361.500000	2.241199  
362.000000	2.273047  
362.500000	2.214925  
363.000000	2.157000  
363.500000	2.044086  
364.000000	2.044962  
364.500000	2.164954  
365.000000	2.312138  
365.500000	2.449275  
366.000000	2.553992  
366.500000	2.655372  
367.000000	2.629327  
367.500000	2.614004  
368.000000	2.501838  
368.500000	2.347482  
369.000000	2.183129  
369.500000	2.064114  
370.000000	1.860487  
370.500000	1.723997  
371.000000	1.621240  
371.500000	1.515559  
372.000000	1.488569  
372.500000	1.550225  
373.000000	1.645950  
373.500000	1.743206  
374.000000	1.967939  
374.500000	2.141573  
375.000000	2.307918  
375.500000	2.349227  
376.000000	2.307277  
376.500000	2.167377  
377.000000	2.000054  
377.500000	1.862944  
378.000000	1.620434  
378.500000	1.439827  
379.000000	1.306979  
379.500000	1.289016  
380.000000	1.339618  
380.500000	1.477899  
381.000000	1.602530  
381.500000	1.641706  
382.000000	1.656551  
382.500000	1.593073  
383.000000	1.481818  
383.500000	1.358842  
384.000000	1.315323  
384.500000	1.416693  
385.000000	1.604102  
385.500000	1.864369  
386.000000	2.081869  
386.500000	2.274801  
387.000000	2.400251  
387.500000	2.431644  
388.000000	2.334076  
388.500000	2.211273  
389.000000	2.145847  
389.500000	2.117301  
390.000000	2.140547  
390.500000	2.179937  
391.000000	2.205449  
391.500000	2.184394  
392.000000	2.092091  
392.500000	1.972832  
393.000000	1.853423  
393.500000	1.775902  
394.000000	1.720147  
394.500000	1.710675  
395.000000	1.745109  
395.500000	1.807690  
396.000000	1.899536  
396.500000	1.948791  
397.000000	2.013302  
397.500000	2.112260  
398.000000	2.202908  
398.500000	2.268111  
399.000000	2.306817  
399.500000	2.343058  
400.000000	2.329631  
400.500000	2.298158  
401.000000	2.192282  
401.500000	2.074933  
402.000000	2.043743  
402.500000	2.013529  
403.000000	2.008672  
403.500000	2.014257  
404.000000	2.059727  
404.500000	2.088684  
405.000000	2.121891  
405.500000	2.145806  
406.000000	2.140199  
406.500000	2.208601  
407.000000	2.244863  
407.500000	2.273894  
408.000000	2.281245  
408.500000	2.252948  
409.000000	2.154486  
409.500000	2.014671  
410.000000	1.914010  
410.500000	1.796345  
411.000000	1.764938  
411.500000	1.781123  
412.000000	1.882886  
412.500000	2.048725  
413.000000	2.222200  
413.500000	2.351219  
414.000000	2.399394  
414.500000	2.433228  
415.000000	2.402580  
415.500000	2.336407  
416.000000	2.237325  
416.500000	2.150089  
417.000000	2.065187  
417.500000	1.984334  
418.000000	1.931302  
418.500000	1.859853  
419.000000	1.808245  
419.500000	1.760897  
420.000000	1.746869  
420.500000	1.726669  
421.000000	1.722670  
421.500000	1.689091  
422.000000	1.637938  
422.500000	1.621556  
423.000000	1.628851  
423.500000	1.635283  
424.000000	1.637858  
424.500000	1.659660  
425.000000	1.686099  
425.500000	1.705970  
426.000000	1.705638  
426.500000	1.660331  
427.000000	1.628275  
427.500000	1.610575  
428.000000	1.601194  
428.500000	1.586435  
429.000000	1.581140  
429.500000	1.595237  
430.000000	1.613424  
430.500000	1.630686  
431.000000	1.616122  
431.500000	1.587227  
432.000000	1.554318  
432.500000	1.521580  
433.000000	1.486944  
433.500000	1.448620  
434.000000	1.432492  
434.500000	1.435135  
435.000000	1.426189  
435.500000	1.415251  
436.000000	1.415900  
436.500000	1.422618  
437.000000	1.418545  
437.500000	1.407378  
438.000000	1.388553  
438.500000	1.374344  
439.000000	1.382473  
439.500000	1.389858  
440.000000	1.380956  
440.500000	1.378611  
441.000000	1.381786  
441.500000	1.365027  
442.000000	1.342996  
442.500000	1.330867  
443.000000	1.324158  
443.500000	1.321483  
444.000000	1.339564  
444.500000	1.333423  

