PE FL                   SPECTRUM    ASCII       PEDS        1.60        
  -1
PM2083~1
23/10/12
12:04:32.00
23/10/12
12:04:32.00


444.500000
1









LS55
45.00
5.00
5.00
SCAN
1
20
100
500
0
500
0
2
0
1
7
ON
500 450 
1 0 0
#HDR
-1
-1
#GR
NM

0.00002384185791015625
0.0
250.000000
0.500000
390
8
12.829904
-4.999999
#DATA
250.000000	-4.999999 
250.500000	-4.103566 
251.000000	-3.312621 
251.500000	-1.947780 
252.000000	-0.684143 
252.500000	0.365783  
253.000000	1.169820  
253.500000	1.961722  
254.000000	1.666391  
254.500000	1.180733  
255.000000	0.361190  
255.500000	-0.679081 
256.000000	-1.398192 
256.500000	-1.990894 
257.000000	-2.209979 
257.500000	-1.970384 
258.000000	-1.056998 
258.500000	-0.606973 
259.000000	-0.088028 
259.500000	-0.017424 
260.000000	-0.235596 
260.500000	-0.383523 
261.000000	-0.737375 
261.500000	-0.999809 
262.000000	-1.330641 
262.500000	-1.238578 
263.000000	-1.305926 
263.500000	-1.196647 
264.000000	-1.259211 
264.500000	-1.452828 
265.000000	-1.648203 
265.500000	-2.260601 
266.000000	-2.608761 
266.500000	-2.908800 
267.000000	-2.730547 
267.500000	-2.503899 
268.000000	-1.708392 
268.500000	-0.666287 
269.000000	0.628077  
269.500000	1.707563  
270.000000	2.055690  
270.500000	2.330002  
271.000000	2.162355  
271.500000	1.779067  
272.000000	0.891814  
272.500000	-0.083955 
273.000000	-0.856133 
273.500000	-1.136375 
274.000000	-1.153513 
274.500000	-1.275005 
275.000000	-1.180071 
275.500000	-1.043481 
276.000000	-0.761855 
276.500000	-0.678282 
277.000000	-0.938310 
277.500000	-1.432724 
278.000000	-2.049135 
278.500000	-2.336284 
279.000000	-2.339733 
279.500000	-2.341932 
280.000000	-2.217737 
280.500000	-1.686854 
281.000000	-0.706671 
281.500000	0.169548  
282.000000	0.882041  
282.500000	1.053439  
283.000000	1.021808  
283.500000	0.914794  
284.000000	0.338260  
284.500000	-0.585135 
285.000000	-1.359892 
285.500000	-1.762540 
286.000000	-1.794588 
286.500000	-1.329669 
287.000000	-0.759028 
287.500000	0.024052  
288.000000	1.028142  
288.500000	1.746784  
289.000000	1.829919  
289.500000	1.664101  
290.000000	1.326761  
290.500000	0.682759  
291.000000	0.223603  
291.500000	0.053512  
292.000000	0.018690  
292.500000	0.228200  
293.000000	0.770423  
293.500000	1.155905  
294.000000	1.474311  
294.500000	2.059843  
295.000000	2.312686  
295.500000	2.473404  
296.000000	2.510617  
296.500000	2.551935  
297.000000	2.554693  
297.500000	2.933122  
298.000000	3.558199  
298.500000	3.963190  
299.000000	4.871853  
299.500000	5.999854  
300.000000	7.304216  
300.500000	8.423235  
301.000000	9.012033  
301.500000	8.861611  
302.000000	8.532133  
302.500000	8.543430  
303.000000	8.034057  
303.500000	7.543778  
304.000000	7.350822  
304.500000	7.758602  
305.000000	8.580891  
305.500000	9.268772  
306.000000	9.589412  
306.500000	9.563468  
307.000000	9.909597  
307.500000	10.134827 
308.000000	10.117216 
308.500000	10.186131 
309.000000	10.585215 
309.500000	11.398427 
310.000000	12.056481 
310.500000	12.775864 
311.000000	12.829904 
311.500000	12.441232 
312.000000	11.722527 
312.500000	10.998530 
313.000000	10.384512 
313.500000	10.016776 
314.000000	9.849790  
314.500000	9.946139  
315.000000	10.612195 
315.500000	11.315679 
316.000000	11.788056 
316.500000	11.894084 
317.000000	11.768271 
317.500000	11.546986 
318.000000	11.276853 
318.500000	10.734434 
319.000000	10.348070 
319.500000	10.217600 
320.000000	10.328752 
320.500000	10.696611 
321.000000	11.007915 
321.500000	11.277954 
322.000000	11.504388 
322.500000	11.533560 
323.000000	11.236754 
323.500000	10.907297 
324.000000	10.222811 
324.500000	9.477595  
325.000000	8.904776  
325.500000	8.518168  
326.000000	8.184207  
326.500000	8.150127  
327.000000	8.114942  
327.500000	8.222470  
328.000000	8.496196  
328.500000	8.537342  
329.000000	8.478571  
329.500000	8.402620  
330.000000	8.060395  
330.500000	7.463021  
331.000000	7.026676  
331.500000	6.380011  
332.000000	5.815907  
332.500000	5.382668  
333.000000	4.850665  
333.500000	4.639054  
334.000000	4.755654  
334.500000	4.879731  
335.000000	4.833136  
335.500000	4.971378  
336.000000	5.090645  
336.500000	5.239316  
337.000000	5.374001  
337.500000	5.263610  
338.000000	5.123843  
338.500000	5.153599  
339.000000	5.145142  
339.500000	4.968421  
340.000000	4.797312  
340.500000	4.703698  
341.000000	4.774169  
341.500000	4.946884  
342.000000	4.941760  
342.500000	4.882141  
343.000000	4.833193  
343.500000	4.859734  
344.000000	4.826085  
344.500000	4.664632  
345.000000	4.527400  
345.500000	4.532657  
346.000000	4.669261  
346.500000	4.747267  
347.000000	4.803680  
347.500000	4.700211  
348.000000	4.616024  
348.500000	4.464455  
349.000000	4.093727  
349.500000	3.700242  
350.000000	3.458585  
350.500000	3.332202  
351.000000	3.282391  
351.500000	3.421899  
352.000000	3.543239  
352.500000	3.732958  
353.000000	3.975088  
353.500000	4.124163  
354.000000	4.299983  
354.500000	4.502735  
355.000000	4.738022  
355.500000	4.980917  
356.000000	5.244601  
356.500000	5.462144  
357.000000	5.625490  
357.500000	5.779950  
358.000000	5.881390  
358.500000	5.939002  
359.000000	5.892413  
359.500000	5.832255  
360.000000	5.797639  
360.500000	5.672440  
361.000000	5.531888  
361.500000	5.409339  
362.000000	5.319750  
362.500000	5.309635  
363.000000	5.430554  
363.500000	5.527289  
364.000000	5.658876  
364.500000	5.838675  
365.000000	5.981645  
365.500000	6.081423  
366.000000	6.131894  
366.500000	6.175337  
367.000000	6.149142  
367.500000	6.191507  
368.000000	6.299666  
368.500000	6.438941  
369.000000	6.579105  
369.500000	6.661215  
370.000000	6.683419  
370.500000	6.690237  
371.000000	6.712434  
371.500000	6.544421  
372.000000	6.254187  
372.500000	5.972676  
373.000000	5.736029  
373.500000	5.523308  
374.000000	5.381830  
374.500000	5.320054  
375.000000	5.342617  
375.500000	5.506663  
376.000000	5.686382  
376.500000	5.779302  
377.000000	5.841671  
377.500000	5.864678  
378.000000	5.804325  
378.500000	5.717107  
379.000000	5.599854  
379.500000	5.498406  
380.000000	5.398807  
380.500000	5.319075  
381.000000	5.215688  
381.500000	5.126584  
382.000000	5.061078  
382.500000	4.985488  
383.000000	4.916605  
383.500000	4.918453  
384.000000	4.967997  
384.500000	5.020196  
385.000000	5.054674  
385.500000	5.047051  
386.000000	4.973821  
386.500000	4.844706  
387.000000	4.675994  
387.500000	4.480710  
388.000000	4.344910  
388.500000	4.286221  
389.000000	4.315442  
389.500000	4.439345  
390.000000	4.593269  
390.500000	4.732940  
391.000000	4.815320  
391.500000	4.857144  
392.000000	4.782208  
392.500000	4.644844  
393.000000	4.458928  
393.500000	4.259382  
394.000000	4.111316  
394.500000	3.998618  
395.000000	3.909705  
395.500000	3.849504  
396.000000	3.854540  
396.500000	3.866073  
397.000000	3.885200  
397.500000	3.913940  
398.000000	3.941009  
398.500000	3.979021  
399.000000	4.027208  
399.500000	4.066162  
400.000000	4.054996  
400.500000	4.042667  
401.000000	4.016382  
401.500000	3.945968  
402.000000	3.856638  
402.500000	3.767432  
403.000000	3.646839  
403.500000	3.561688  
404.000000	3.517439  
404.500000	3.480087  
405.000000	3.438963  
405.500000	3.425645  
406.000000	3.398787  
406.500000	3.345292  
407.000000	3.304118  
407.500000	3.223044  
408.000000	3.167734  
408.500000	3.144217  
409.000000	3.162304  
409.500000	3.214248  
410.000000	3.295551  
410.500000	3.378860  
411.000000	3.432210  
411.500000	3.466205  
412.000000	3.438704  
412.500000	3.398533  
413.000000	3.306790  
413.500000	3.202106  
414.000000	3.125328  
414.500000	3.070033  
415.000000	3.041449  
415.500000	3.009535  
416.000000	2.955648  
416.500000	2.895796  
417.000000	2.867864  
417.500000	2.808388  
418.000000	2.727074  
418.500000	2.661830  
419.000000	2.599568  
419.500000	2.548513  
420.000000	2.500031  
420.500000	2.425639  
421.000000	2.340064  
421.500000	2.287462  
422.000000	2.217729  
422.500000	2.158982  
423.000000	2.117275  
423.500000	2.085878  
424.000000	2.075288  
424.500000	2.074951  
425.000000	2.076550  
425.500000	2.079424  
426.000000	2.078653  
426.500000	2.053248  
427.000000	2.030212  
427.500000	2.023229  
428.000000	2.012458  
428.500000	1.994315  
429.000000	1.971313  
429.500000	1.983299  
430.000000	2.007602  
430.500000	2.022923  
431.000000	2.023614  
431.500000	2.006807  
432.000000	1.998545  
432.500000	1.990644  
433.000000	1.964129  
433.500000	1.917146  
434.000000	1.872600  
434.500000	1.845054  
435.000000	1.812206  
435.500000	1.783737  
436.000000	1.742464  
436.500000	1.712428  
437.000000	1.710048  
437.500000	1.705399  
438.000000	1.696999  
438.500000	1.681402  
439.000000	1.674578  
439.500000	1.665081  
440.000000	1.670206  
440.500000	1.649346  
441.000000	1.610922  
441.500000	1.588158  
442.000000	1.565185  
442.500000	1.554047  
443.000000	1.532855  
443.500000	1.522250  
444.000000	1.513400  
444.500000	1.524070  

