PE FL                   SPECTRUM    ASCII       PEDS        1.60        
  -1
PM2043~1
23/10/12
12:01:50.00
23/10/12
12:01:50.00


444.500000
1









LS55
25.00
5.00
5.00
SCAN
1
20
100
500
0
500
0
2
0
1
7
ON
500 450 
1 0 0
#HDR
-1
-1
#GR
NM

0.00002384185791015625
0.0
250.000000
0.500000
390
8
8.469447
-4.913061
#DATA
250.000000	5.577000  
250.500000	2.909748  
251.000000	0.767822  
251.500000	-0.931218 
252.000000	-2.375776 
252.500000	-3.487503 
253.000000	-4.236789 
253.500000	-4.670713 
254.000000	-4.715337 
254.500000	-4.877045 
255.000000	-4.913061 
255.500000	-4.596451 
256.000000	-4.190521 
256.500000	-3.719272 
257.000000	-3.091875 
257.500000	-2.442644 
258.000000	-2.157973 
258.500000	-1.894477 
259.000000	-1.838110 
259.500000	-1.976699 
260.000000	-2.068600 
260.500000	-2.307863 
261.000000	-2.579839 
261.500000	-2.640336 
262.000000	-2.434784 
262.500000	-2.472256 
263.000000	-2.367937 
263.500000	-2.269457 
264.000000	-2.402212 
264.500000	-2.576511 
265.000000	-2.762014 
265.500000	-2.936425 
266.000000	-3.055951 
266.500000	-3.127436 
267.000000	-3.193784 
267.500000	-3.031025 
268.000000	-2.530708 
268.500000	-2.181941 
269.000000	-1.943103 
269.500000	-1.619891 
270.000000	-1.020940 
270.500000	-0.402316 
271.000000	0.040761  
271.500000	0.133352  
272.000000	0.089152  
272.500000	-0.090005 
273.000000	-0.623543 
273.500000	-1.391719 
274.000000	-2.245715 
274.500000	-3.014797 
275.000000	-3.458898 
275.500000	-3.709439 
276.000000	-3.929005 
276.500000	-3.978292 
277.000000	-3.972286 
277.500000	-3.837972 
278.000000	-3.361062 
278.500000	-2.800926 
279.000000	-2.420677 
279.500000	-1.842469 
280.000000	-0.931095 
280.500000	-0.239877 
281.000000	0.356480  
281.500000	0.489795  
282.000000	0.522612  
282.500000	0.703645  
283.000000	0.677853  
283.500000	0.208231  
284.000000	-0.072547 
284.500000	0.006739  
285.000000	0.094657  
285.500000	0.193335  
286.000000	0.094170  
286.500000	0.217307  
287.000000	0.802192  
287.500000	1.101205  
288.000000	1.021184  
288.500000	1.029720  
289.000000	1.128540  
289.500000	1.110191  
290.000000	0.619753  
290.500000	-0.092630 
291.000000	-0.663855 
291.500000	-0.604281 
292.000000	-0.669763 
292.500000	-0.599293 
293.000000	-0.249145 
293.500000	0.110750  
294.000000	0.543189  
294.500000	0.729309  
295.000000	0.897478  
295.500000	1.018241  
296.000000	1.269216  
296.500000	1.340751  
297.000000	1.804709  
297.500000	2.525956  
298.000000	3.257512  
298.500000	3.934665  
299.000000	4.280468  
299.500000	4.543103  
300.000000	4.576516  
300.500000	4.213549  
301.000000	3.533358  
301.500000	3.186104  
302.000000	3.240673  
302.500000	3.634296  
303.000000	4.144613  
303.500000	4.620666  
304.000000	5.247707  
304.500000	5.750000  
305.000000	5.760116  
305.500000	5.311455  
306.000000	4.486237  
306.500000	3.625722  
307.000000	2.878565  
307.500000	2.170137  
308.000000	1.425965  
308.500000	1.139513  
309.000000	1.100356  
309.500000	1.317375  
310.000000	1.721583  
310.500000	1.963702  
311.000000	2.323963  
311.500000	2.932028  
312.000000	3.630563  
312.500000	3.845043  
313.000000	4.065907  
313.500000	4.278742  
314.000000	4.588767  
314.500000	5.180748  
315.000000	5.657395  
315.500000	6.087306  
316.000000	6.484903  
316.500000	7.016794  
317.000000	7.155421  
317.500000	7.277302  
318.000000	7.438800  
318.500000	7.496945  
319.000000	7.797304  
319.500000	8.228213  
320.000000	8.469447  
320.500000	8.372447  
321.000000	8.219889  
321.500000	7.855121  
322.000000	7.484022  
322.500000	7.298344  
323.000000	7.108440  
323.500000	7.141782  
324.000000	7.551334  
324.500000	8.067593  
325.000000	8.324375  
325.500000	8.355734  
326.000000	8.139377  
326.500000	7.648947  
327.000000	7.135882  
327.500000	6.532734  
328.000000	5.948962  
328.500000	5.616653  
329.000000	5.633872  
329.500000	5.694986  
330.000000	5.771563  
330.500000	5.810242  
331.000000	5.700665  
331.500000	5.493372  
332.000000	5.254810  
332.500000	4.869043  
333.000000	4.377106  
333.500000	4.060556  
334.000000	3.933268  
334.500000	3.871947  
335.000000	3.777738  
335.500000	3.795073  
336.000000	3.713181  
336.500000	3.666812  
337.000000	3.423035  
337.500000	2.929905  
338.000000	2.401561  
338.500000	2.088414  
339.000000	1.866046  
339.500000	1.654701  
340.000000	1.693619  
340.500000	1.885651  
341.000000	2.320263  
341.500000	2.675165  
342.000000	2.839930  
342.500000	2.867149  
343.000000	2.771409  
343.500000	2.527053  
344.000000	2.055267  
344.500000	1.613831  
345.000000	1.244391  
345.500000	1.085211  
346.000000	1.129755  
346.500000	1.183368  
347.000000	1.289265  
347.500000	1.452384  
348.000000	1.678843  
348.500000	1.818724  
349.000000	1.882430  
349.500000	1.900548  
350.000000	1.850367  
350.500000	1.895176  
351.000000	1.913055  
351.500000	1.887882  
352.000000	1.860960  
352.500000	1.844301  
353.000000	1.822755  
353.500000	1.854926  
354.000000	1.905456  
354.500000	1.908448  
355.000000	2.018234  
355.500000	2.203151  
356.000000	2.336316  
356.500000	2.396495  
357.000000	2.340123  
357.500000	2.188265  
358.000000	1.951465  
358.500000	1.748183  
359.000000	1.633946  
359.500000	1.453957  
360.000000	1.452001  
360.500000	1.616970  
361.000000	1.884138  
361.500000	2.152372  
362.000000	2.301766  
362.500000	2.363127  
363.000000	2.476691  
363.500000	2.639607  
364.000000	2.551109  
364.500000	2.533411  
365.000000	2.508927  
365.500000	2.493992  
366.000000	2.512730  
366.500000	2.445566  
367.000000	2.268229  
367.500000	2.200407  
368.000000	2.275066  
368.500000	2.228092  
369.000000	2.235977  
369.500000	2.211964  
370.000000	2.180316  
370.500000	2.145113  
371.000000	2.063305  
371.500000	1.902514  
372.000000	1.755673  
372.500000	1.692602  
373.000000	1.692956  
373.500000	1.874618  
374.000000	2.171970  
374.500000	2.523664  
375.000000	2.913869  
375.500000	3.266672  
376.000000	3.490019  
376.500000	3.443246  
377.000000	3.221949  
377.500000	2.848529  
378.000000	2.434415  
378.500000	2.106782  
379.000000	1.898209  
379.500000	1.863392  
380.000000	1.970830  
380.500000	2.163037  
381.000000	2.367096  
381.500000	2.560939  
382.000000	2.689210  
382.500000	2.710857  
383.000000	2.660933  
383.500000	2.583323  
384.000000	2.522113  
384.500000	2.461909  
385.000000	2.401898  
385.500000	2.366696  
386.000000	2.379113  
386.500000	2.459852  
387.000000	2.570564  
387.500000	2.731453  
388.000000	2.937292  
388.500000	3.149750  
389.000000	3.276334  
389.500000	3.319290  
390.000000	3.228933  
390.500000	3.038963  
391.000000	2.755594  
391.500000	2.401111  
392.000000	2.104751  
392.500000	1.892912  
393.000000	1.816092  
393.500000	1.800654  
394.000000	1.912528  
394.500000	2.110785  
395.000000	2.375933  
395.500000	2.649779  
396.000000	2.826899  
396.500000	2.964614  
397.000000	3.065271  
397.500000	3.106385  
398.000000	3.052504  
398.500000	2.962008  
399.000000	2.874757  
399.500000	2.767054  
400.000000	2.675575  
400.500000	2.549683  
401.000000	2.427405  
401.500000	2.365365  
402.000000	2.300639  
402.500000	2.247550  
403.000000	2.160953  
403.500000	2.126625  
404.000000	2.098536  
404.500000	2.103031  
405.000000	2.160295  
405.500000	2.210131  
406.000000	2.330531  
406.500000	2.420055  
407.000000	2.506008  
407.500000	2.528476  
408.000000	2.506222  
408.500000	2.453467  
409.000000	2.378638  
409.500000	2.330015  
410.000000	2.279087  
410.500000	2.261093  
411.000000	2.257996  
411.500000	2.307042  
412.000000	2.392037  
412.500000	2.413631  
413.000000	2.406789  
413.500000	2.380843  
414.000000	2.344929  
414.500000	2.263611  
415.000000	2.171978  
415.500000	2.085788  
416.000000	2.033191  
416.500000	2.099226  
417.000000	2.143661  
417.500000	2.182201  
418.000000	2.248958  
418.500000	2.296247  
419.000000	2.305644  
419.500000	2.282474  
420.000000	2.184590  
420.500000	2.039511  
421.000000	1.959466  
421.500000	1.883936  
422.000000	1.798169  
422.500000	1.755357  
423.000000	1.725137  
423.500000	1.699778  
424.000000	1.707948  
424.500000	1.678176  
425.000000	1.633191  
425.500000	1.623591  
426.000000	1.647942  
426.500000	1.648731  
427.000000	1.670514  
427.500000	1.696280  
428.000000	1.719611  
428.500000	1.764284  
429.000000	1.770725  
429.500000	1.752385  
430.000000	1.726658  
430.500000	1.704070  
431.000000	1.648962  
431.500000	1.605693  
432.000000	1.557560  
432.500000	1.520393  
433.000000	1.507666  
433.500000	1.488975  
434.000000	1.457747  
434.500000	1.430649  
435.000000	1.400809  
435.500000	1.353743  
436.000000	1.324872  
436.500000	1.303072  
437.000000	1.302945  
437.500000	1.319322  
438.000000	1.356861  
438.500000	1.386030  
439.000000	1.414739  
439.500000	1.409929  
440.000000	1.367098  
440.500000	1.314955  
441.000000	1.257071  
441.500000	1.215842  
442.000000	1.186150  
442.500000	1.203898  
443.000000	1.230674  
443.500000	1.279471  
444.000000	1.324261  
444.500000	1.359413  

