PE FL                   SPECTRUM    ASCII       PEDS        1.60        
  -1
PM2013~1
23/10/12
11:59:49.00
23/10/12
11:59:49.00


444.500000
1









LS55
10.00
5.00
5.00
SCAN
1
20
100
500
0
500
0
2
0
1
7
ON
500 450 
1 0 0
#HDR
-1
-1
#GR
NM

0.00002384185791015625
0.0
250.000000
0.500000
390
8
4.824598
-4.061287
#DATA
250.000000	-2.864000 
250.500000	-2.560062 
251.000000	-2.346485 
251.500000	-2.257648 
252.000000	-1.996354 
252.500000	-1.636908 
253.000000	-1.356794 
253.500000	-1.444941 
254.000000	-1.695472 
254.500000	-1.850813 
255.000000	-2.019410 
255.500000	-2.208793 
256.000000	-2.764603 
256.500000	-3.279627 
257.000000	-3.513180 
257.500000	-3.318415 
258.000000	-3.101666 
258.500000	-3.056531 
259.000000	-2.553055 
259.500000	-1.879681 
260.000000	-1.240860 
260.500000	-0.687154 
261.000000	-0.526041 
261.500000	-0.441375 
262.000000	-0.277008 
262.500000	-0.730598 
263.000000	-1.507905 
263.500000	-2.045806 
264.000000	-2.465739 
264.500000	-2.749159 
265.000000	-2.896611 
265.500000	-3.194390 
266.000000	-3.416882 
266.500000	-2.994409 
267.000000	-2.521961 
267.500000	-1.782451 
268.000000	-0.611144 
268.500000	0.474164  
269.000000	1.620462  
269.500000	2.492086  
270.000000	2.759235  
270.500000	2.278557  
271.000000	1.560656  
271.500000	0.190735  
272.000000	-1.038886 
272.500000	-2.091310 
273.000000	-3.002896 
273.500000	-3.268805 
274.000000	-3.062011 
274.500000	-2.267621 
275.000000	-1.439859 
275.500000	-0.460494 
276.000000	0.188434  
276.500000	0.671403  
277.000000	0.810160  
277.500000	0.453064  
278.000000	-0.292601 
278.500000	-1.347204 
279.000000	-2.228138 
279.500000	-2.861416 
280.000000	-3.171238 
280.500000	-3.216436 
281.000000	-3.062601 
281.500000	-2.863592 
282.000000	-2.643193 
282.500000	-2.485178 
283.000000	-2.578323 
283.500000	-2.327912 
284.000000	-1.821962 
284.500000	-1.288158 
285.000000	-0.598920 
285.500000	-0.032750 
286.000000	0.330034  
286.500000	0.388757  
287.000000	-0.032556 
287.500000	-1.099306 
288.000000	-2.150972 
288.500000	-2.893509 
289.000000	-3.563933 
289.500000	-3.931906 
290.000000	-4.061287 
290.500000	-3.826783 
291.000000	-3.457336 
291.500000	-3.050726 
292.000000	-3.032464 
292.500000	-3.164136 
293.000000	-3.191843 
293.500000	-3.327560 
294.000000	-3.348512 
294.500000	-3.643976 
295.000000	-3.794932 
295.500000	-3.752405 
296.000000	-3.408176 
296.500000	-2.944139 
297.000000	-2.627856 
297.500000	-2.152288 
298.000000	-1.537237 
298.500000	-0.774569 
299.000000	-0.584152 
299.500000	-0.470646 
300.000000	-0.488702 
300.500000	-0.272112 
301.000000	-0.062385 
301.500000	0.004118  
302.000000	0.186125  
302.500000	0.309212  
303.000000	0.424774  
303.500000	0.071310  
304.000000	-0.192905 
304.500000	-0.350654 
305.000000	-0.140974 
305.500000	0.101656  
306.000000	0.406065  
306.500000	1.136806  
307.000000	1.942366  
307.500000	2.472527  
308.000000	2.358749  
308.500000	2.145503  
309.000000	1.893617  
309.500000	1.607849  
310.000000	1.010012  
310.500000	0.184617  
311.000000	-0.184817 
311.500000	-0.218043 
312.000000	-0.273138 
312.500000	-0.597709 
313.000000	-0.776362 
313.500000	-0.546294 
314.000000	-0.279181 
314.500000	-0.211199 
315.000000	-0.426714 
315.500000	-0.649246 
316.000000	-0.664517 
316.500000	-0.515011 
317.000000	-0.599094 
317.500000	-0.362805 
318.000000	0.277899  
318.500000	0.947341  
319.000000	1.384948  
319.500000	1.727293  
320.000000	1.733437  
320.500000	1.778946  
321.000000	2.018059  
321.500000	1.876296  
322.000000	1.872635  
322.500000	2.207670  
323.000000	2.628677  
323.500000	2.880343  
324.000000	3.167221  
324.500000	3.154683  
325.000000	3.006536  
325.500000	3.246672  
326.000000	3.313705  
326.500000	3.417313  
327.000000	3.642878  
327.500000	3.977195  
328.000000	4.412898  
328.500000	4.765888  
329.000000	4.824598  
329.500000	4.499303  
330.000000	4.307146  
330.500000	4.165524  
331.000000	3.900016  
331.500000	3.437002  
332.000000	3.067848  
332.500000	2.765378  
333.000000	2.462365  
333.500000	2.204014  
334.000000	1.701104  
334.500000	1.257616  
335.000000	1.160093  
335.500000	1.284425  
336.000000	1.415339  
336.500000	1.770418  
337.000000	2.007758  
337.500000	2.260485  
338.000000	2.412613  
338.500000	2.201903  
339.000000	1.697827  
339.500000	1.199274  
340.000000	0.926461  
340.500000	0.850131  
341.000000	1.175667  
341.500000	1.504475  
342.000000	1.992050  
342.500000	2.579934  
343.000000	3.016229  
343.500000	3.110311  
344.000000	2.920454  
344.500000	2.680465  
345.000000	2.486952  
345.500000	2.364421  
346.000000	2.222823  
346.500000	2.101578  
347.000000	1.939418  
347.500000	1.843484  
348.000000	1.687983  
348.500000	1.376765  
349.000000	1.105839  
349.500000	0.911270  
350.000000	0.902725  
350.500000	1.165102  
351.000000	1.582273  
351.500000	1.827056  
352.000000	2.220206  
352.500000	2.430457  
353.000000	2.509260  
353.500000	2.431514  
354.000000	2.161482  
354.500000	1.821440  
355.000000	1.625330  
355.500000	1.637608  
356.000000	1.641891  
356.500000	1.922108  
357.000000	2.174017  
357.500000	2.418930  
358.000000	2.608545  
358.500000	2.601662  
359.000000	2.381636  
359.500000	2.070438  
360.000000	1.769196  
360.500000	1.529559  
361.000000	1.555601  
361.500000	1.677448  
362.000000	1.890993  
362.500000	2.133512  
363.000000	2.326050  
363.500000	2.391522  
364.000000	2.301864  
364.500000	2.030252  
365.000000	1.765128  
365.500000	1.577572  
366.000000	1.540069  
366.500000	1.650377  
367.000000	1.940201  
367.500000	2.249051  
368.000000	2.484864  
368.500000	2.653887  
369.000000	2.679959  
369.500000	2.621543  
370.000000	2.489960  
370.500000	2.409831  
371.000000	2.320680  
371.500000	2.348553  
372.000000	2.502055  
372.500000	2.652001  
373.000000	2.813817  
373.500000	2.906482  
374.000000	2.911282  
374.500000	2.918728  
375.000000	2.956615  
375.500000	2.936649  
376.000000	2.841702  
376.500000	2.755656  
377.000000	2.620671  
377.500000	2.425697  
378.000000	2.178973  
378.500000	1.909113  
379.000000	1.682531  
379.500000	1.583773  
380.000000	1.652009  
380.500000	1.781641  
381.000000	1.958019  
381.500000	2.125612  
382.000000	2.281722  
382.500000	2.334663  
383.000000	2.303953  
383.500000	2.235387  
384.000000	2.078072  
384.500000	1.929657  
385.000000	1.861153  
385.500000	1.845228  
386.000000	1.855232  
386.500000	1.938391  
387.000000	1.917050  
387.500000	1.903779  
388.000000	1.909548  
388.500000	1.896218  
389.000000	1.841677  
389.500000	1.840043  
390.000000	1.862729  
390.500000	1.908524  
391.000000	2.047288  
391.500000	2.111087  
392.000000	2.112227  
392.500000	2.071805  
393.000000	2.020140  
393.500000	1.926943  
394.000000	1.853317  
394.500000	1.780789  
395.000000	1.742189  
395.500000	1.762574  
396.000000	1.809391  
396.500000	1.820562  
397.000000	1.788329  
397.500000	1.763685  
398.000000	1.716619  
398.500000	1.659114  
399.000000	1.647762  
399.500000	1.670711  
400.000000	1.713521  
400.500000	1.860425  
401.000000	1.957930  
401.500000	2.012358  
402.000000	2.075999  
402.500000	2.135950  
403.000000	2.137824  
403.500000	2.118693  
404.000000	2.096286  
404.500000	2.082515  
405.000000	2.146427  
405.500000	2.173552  
406.000000	2.163619  
406.500000	2.147774  
407.000000	2.122193  
407.500000	2.049741  
408.000000	1.955556  
408.500000	1.869165  
409.000000	1.831141  
409.500000	1.854061  
410.000000	1.911955  
410.500000	1.984941  
411.000000	2.072168  
411.500000	2.129648  
412.000000	2.155000  
412.500000	2.125168  
413.000000	2.067961  
413.500000	2.026240  
414.000000	1.972290  
414.500000	1.932105  
415.000000	1.921477  
415.500000	1.959209  
416.000000	2.004127  
416.500000	2.053504  
417.000000	2.111903  
417.500000	2.168711  
418.000000	2.227740  
418.500000	2.263116  
419.000000	2.252520  
419.500000	2.206741  
420.000000	2.160538  
420.500000	2.087020  
421.000000	1.995156  
421.500000	1.915083  
422.000000	1.839665  
422.500000	1.796380  
423.000000	1.786201  
423.500000	1.772597  
424.000000	1.750457  
424.500000	1.750747  
425.000000	1.755765  
425.500000	1.737238  
426.000000	1.730462  
426.500000	1.710756  
427.000000	1.693950  
427.500000	1.682082  
428.000000	1.674089  
428.500000	1.659019  
429.000000	1.655532  
429.500000	1.672225  
430.000000	1.674710  
430.500000	1.680503  
431.000000	1.670442  
431.500000	1.664464  
432.000000	1.655270  
432.500000	1.630978  
433.000000	1.616501  
433.500000	1.604040  
434.000000	1.607109  
434.500000	1.609995  
435.000000	1.601159  
435.500000	1.593296  
436.000000	1.580978  
436.500000	1.561462  
437.000000	1.527596  
437.500000	1.505973  
438.000000	1.486494  
438.500000	1.482101  
439.000000	1.490840  
439.500000	1.496777  
440.000000	1.506081  
440.500000	1.517633  
441.000000	1.520605  
441.500000	1.513438  
442.000000	1.513789  
442.500000	1.505044  
443.000000	1.497284  
443.500000	1.485671  
444.000000	1.458827  
444.500000	1.424252  

