PE FL                   SPECTRUM    ASCII       PEDS        1.60        
  -1
PM4A5F~1
23/10/10
10:42:56.00
23/10/10
10:42:56.00


444.500000
1









LS55
40.00
5.00
5.00
SCAN
1
20
100
100
0
500
0
2
0
1
7
ON
435 365 
1 0 0
#HDR
-1
-1
#GR
NM

0.00002384185791015625
0.0
300.000000
0.500000
290
8
5.271961
0.140346
#DATA
300.000000	2.440000 
300.500000	1.360624 
301.000000	0.623473 
301.500000	0.226630 
302.000000	0.140346 
302.500000	0.505621 
303.000000	0.742982 
303.500000	1.162757 
304.000000	1.559983 
304.500000	1.804260 
305.000000	1.793283 
305.500000	1.914291 
306.000000	2.143022 
306.500000	2.597810 
307.000000	3.285038 
307.500000	3.712276 
308.000000	3.916752 
308.500000	3.853131 
309.000000	3.597964 
309.500000	2.826380 
310.000000	2.166200 
310.500000	1.468813 
311.000000	1.195739 
311.500000	1.421875 
312.000000	1.939498 
312.500000	2.554316 
313.000000	3.278911 
313.500000	4.138298 
314.000000	4.555334 
314.500000	4.952034 
315.000000	4.922973 
315.500000	4.755212 
316.000000	4.711984 
316.500000	4.813296 
317.000000	4.696404 
317.500000	4.574874 
318.000000	4.726939 
318.500000	4.747395 
319.000000	4.912448 
319.500000	5.025063 
320.000000	5.019924 
320.500000	5.134880 
321.000000	5.271961 
321.500000	5.081158 
322.000000	4.573774 
322.500000	4.093853 
323.000000	3.499317 
323.500000	2.867055 
324.000000	2.317989 
324.500000	1.751002 
325.000000	1.496000 
325.500000	1.486235 
326.000000	1.662941 
326.500000	1.873224 
327.000000	2.300108 
327.500000	2.663006 
328.000000	2.888115 
328.500000	2.933648 
329.000000	2.711112 
329.500000	2.509472 
330.000000	2.255851 
330.500000	1.960842 
331.000000	1.654391 
331.500000	1.525751 
332.000000	1.441020 
332.500000	1.609045 
333.000000	1.773098 
333.500000	1.840110 
334.000000	2.027601 
334.500000	2.355922 
335.000000	2.630705 
335.500000	2.709492 
336.000000	2.791073 
336.500000	2.725039 
337.000000	2.715162 
337.500000	2.555610 
338.000000	2.234015 
338.500000	1.932158 
339.000000	1.864205 
339.500000	1.893600 
340.000000	1.918087 
340.500000	1.999711 
341.000000	2.141785 
341.500000	2.411412 
342.000000	2.447494 
342.500000	2.368998 
343.000000	2.239238 
343.500000	2.197556 
344.000000	2.177097 
344.500000	2.154543 
345.000000	2.127644 
345.500000	2.222086 
346.000000	2.508464 
346.500000	2.546524 
347.000000	2.533409 
347.500000	2.539448 
348.000000	2.582490 
348.500000	2.604265 
349.000000	2.592455 
349.500000	2.546789 
350.000000	2.550340 
350.500000	2.712710 
351.000000	2.710611 
351.500000	2.648610 
352.000000	2.637982 
352.500000	2.690604 
353.000000	2.729680 
353.500000	2.705619 
354.000000	2.637922 
354.500000	2.526212 
355.000000	2.317613 
355.500000	2.015497 
356.000000	1.663150 
356.500000	1.391260 
357.000000	1.308529 
357.500000	1.257397 
358.000000	1.244500 
358.500000	1.340357 
359.000000	1.420902 
359.500000	1.449661 
360.000000	1.453293 
360.500000	1.432961 
361.000000	1.477924 
361.500000	1.679728 
362.000000	1.892785 
362.500000	1.959635 
363.000000	2.005698 
363.500000	1.957441 
364.000000	1.783981 
364.500000	1.506258 
365.000000	1.172913 
365.500000	0.860106 
366.000000	0.634107 
366.500000	0.589705 
367.000000	0.587031 
367.500000	0.666742 
368.000000	0.811758 
368.500000	1.011658 
369.000000	1.208621 
369.500000	1.305250 
370.000000	1.358302 
370.500000	1.309361 
371.000000	1.256494 
371.500000	1.118374 
372.000000	0.997121 
372.500000	0.920631 
373.000000	0.934951 
373.500000	1.062437 
374.000000	1.178590 
374.500000	1.373309 
375.000000	1.502947 
375.500000	1.513469 
376.000000	1.390736 
376.500000	1.235944 
377.000000	0.973457 
377.500000	0.760295 
378.000000	0.632802 
378.500000	0.549258 
379.000000	0.607960 
379.500000	0.712696 
380.000000	0.825145 
380.500000	0.907799 
381.000000	1.032469 
381.500000	1.050265 
382.000000	1.078487 
382.500000	1.022535 
383.000000	0.936707 
383.500000	0.894908 
384.000000	0.850052 
384.500000	0.833521 
385.000000	0.823263 
385.500000	0.821912 
386.000000	0.747809 
386.500000	0.705722 
387.000000	0.613410 
387.500000	0.510684 
388.000000	0.425878 
388.500000	0.320238 
389.000000	0.291237 
389.500000	0.295971 
390.000000	0.316345 
390.500000	0.332245 
391.000000	0.377201 
391.500000	0.422975 
392.000000	0.481293 
392.500000	0.546673 
393.000000	0.576786 
393.500000	0.640155 
394.000000	0.707815 
394.500000	0.727597 
395.000000	0.757700 
395.500000	0.763739 
396.000000	0.715192 
396.500000	0.626388 
397.000000	0.560468 
397.500000	0.512539 
398.000000	0.478916 
398.500000	0.452600 
399.000000	0.380784 
399.500000	0.378553 
400.000000	0.393519 
400.500000	0.370697 
401.000000	0.308790 
401.500000	0.260785 
402.000000	0.255494 
402.500000	0.280182 
403.000000	0.313865 
403.500000	0.307960 
404.000000	0.343549 
404.500000	0.410448 
405.000000	0.456752 
405.500000	0.466821 
406.000000	0.465071 
406.500000	0.473468 
407.000000	0.492281 
407.500000	0.499402 
408.000000	0.467824 
408.500000	0.463164 
409.000000	0.460074 
409.500000	0.451640 
410.000000	0.451196 
410.500000	0.438390 
411.000000	0.426306 
411.500000	0.438613 
412.000000	0.462068 
412.500000	0.465866 
413.000000	0.487343 
413.500000	0.503598 
414.000000	0.538639 
414.500000	0.599859 
415.000000	0.634348 
415.500000	0.640784 
416.000000	0.647909 
416.500000	0.637972 
417.000000	0.589977 
417.500000	0.535233 
418.000000	0.436163 
418.500000	0.351067 
419.000000	0.303366 
419.500000	0.247725 
420.000000	0.197364 
420.500000	0.181785 
421.000000	0.178193 
421.500000	0.205326 
422.000000	0.249399 
422.500000	0.248269 
423.000000	0.232465 
423.500000	0.238666 
424.000000	0.222011 
424.500000	0.194304 
425.000000	0.174747 
425.500000	0.165699 
426.000000	0.187603 
426.500000	0.255924 
427.000000	0.310937 
427.500000	0.352599 
428.000000	0.397919 
428.500000	0.419785 
429.000000	0.401910 
429.500000	0.366497 
430.000000	0.324642 
430.500000	0.294951 
431.000000	0.301141 
431.500000	0.315382 
432.000000	0.339394 
432.500000	0.383706 
433.000000	0.423876 
433.500000	0.437133 
434.000000	0.421789 
434.500000	0.395668 
435.000000	0.355332 
435.500000	0.320502 
436.000000	0.293937 
436.500000	0.277960 
437.000000	0.279344 
437.500000	0.293874 
438.000000	0.315434 
438.500000	0.347626 
439.000000	0.378922 
439.500000	0.410172 
440.000000	0.452509 
440.500000	0.503961 
441.000000	0.556321 
441.500000	0.591858 
442.000000	0.603346 
442.500000	0.594557 
443.000000	0.573201 
443.500000	0.533816 
444.000000	0.480455 
444.500000	0.432362 

