PE FL                   SPECTRUM    ASCII       PEDS        1.60        
  -1
PM4A3F~1
23/10/10
10:41:48.00
23/10/10
10:41:48.00


444.500000
1









LS55
30.00
5.00
5.00
SCAN
1
20
100
100
0
500
0
2
0
1
7
ON
435 365 
1 0 0
#HDR
-1
-1
#GR
NM

0.00002384185791015625
0.0
300.000000
0.500000
290
8
7.750110
-0.380679
#DATA
300.000000	7.223999  
300.500000	6.551162  
301.000000	5.789683  
301.500000	5.029959  
302.000000	4.659488  
302.500000	4.733657  
303.000000	4.751153  
303.500000	4.491525  
304.000000	4.272632  
304.500000	4.172465  
305.000000	4.038199  
305.500000	4.013220  
306.000000	4.112617  
306.500000	4.439895  
307.000000	4.855182  
307.500000	5.141403  
308.000000	5.078938  
308.500000	4.799468  
309.000000	4.416026  
309.500000	3.956774  
310.000000	3.631515  
310.500000	3.785587  
311.000000	4.140304  
311.500000	4.466005  
312.000000	5.044155  
312.500000	5.520347  
313.000000	5.864467  
313.500000	5.969563  
314.000000	5.968478  
314.500000	5.950520  
315.000000	6.323613  
315.500000	6.787890  
316.000000	7.037502  
316.500000	7.488400  
317.000000	7.750110  
317.500000	7.584644  
318.000000	7.160814  
318.500000	6.525216  
319.000000	5.779300  
319.500000	5.302456  
320.000000	4.955131  
320.500000	4.513606  
321.000000	4.468313  
321.500000	4.622333  
322.000000	4.737846  
322.500000	4.884083  
323.000000	4.943364  
323.500000	4.883583  
324.000000	4.687340  
324.500000	4.505698  
325.000000	4.124896  
325.500000	3.965486  
326.000000	3.905611  
326.500000	3.916611  
327.000000	4.075074  
327.500000	4.204351  
328.000000	4.200906  
328.500000	3.842482  
329.000000	3.536195  
329.500000	3.110566  
330.000000	2.742313  
330.500000	2.325919  
331.000000	2.035400  
331.500000	1.919335  
332.000000	1.791722  
332.500000	1.697721  
333.000000	1.272004  
333.500000	0.816344  
334.000000	0.485240  
334.500000	0.306685  
335.000000	0.130885  
335.500000	0.112078  
336.000000	0.190968  
336.500000	0.231632  
337.000000	0.372620  
337.500000	0.303427  
338.000000	0.092181  
338.500000	-0.041149 
339.000000	-0.091188 
339.500000	-0.072960 
340.000000	0.114060  
340.500000	0.483690  
341.000000	0.789529  
341.500000	1.135854  
342.000000	1.410047  
342.500000	1.531459  
343.000000	1.498186  
343.500000	1.281589  
344.000000	0.900012  
344.500000	0.519424  
345.000000	0.277759  
345.500000	0.099305  
346.000000	-0.013091 
346.500000	0.002313  
347.000000	0.086914  
347.500000	0.237334  
348.000000	0.336675  
348.500000	0.306317  
349.000000	0.263786  
349.500000	0.248797  
350.000000	0.219550  
350.500000	0.146141  
351.000000	0.212094  
351.500000	0.310413  
352.000000	0.454178  
352.500000	0.653542  
353.000000	0.720544  
353.500000	0.787846  
354.000000	0.820081  
354.500000	0.758572  
355.000000	0.655106  
355.500000	0.706870  
356.000000	0.796048  
356.500000	0.848739  
357.000000	0.886888  
357.500000	0.891931  
358.000000	0.867736  
358.500000	0.789678  
359.000000	0.553337  
359.500000	0.281479  
360.000000	0.162695  
360.500000	0.147689  
361.000000	0.167105  
361.500000	0.226436  
362.000000	0.323632  
362.500000	0.413148  
363.000000	0.476612  
363.500000	0.378011  
364.000000	0.187456  
364.500000	0.042657  
365.000000	-0.023028 
365.500000	-0.010558 
366.000000	0.023346  
366.500000	0.153270  
367.000000	0.296164  
367.500000	0.441448  
368.000000	0.547771  
368.500000	0.549080  
369.000000	0.432721  
369.500000	0.323199  
370.000000	0.188565  
370.500000	-0.007265 
371.000000	-0.170618 
371.500000	-0.288754 
372.000000	-0.380679 
372.500000	-0.364109 
373.000000	-0.316128 
373.500000	-0.277973 
374.000000	-0.132520 
374.500000	0.081133  
375.000000	0.191805  
375.500000	0.281433  
376.000000	0.363567  
376.500000	0.415652  
377.000000	0.486069  
377.500000	0.562580  
378.000000	0.648326  
378.500000	0.821982  
379.000000	1.044241  
379.500000	1.218677  
380.000000	1.293242  
380.500000	1.322141  
381.000000	1.296554  
381.500000	1.198274  
382.000000	1.018215  
382.500000	0.851719  
383.000000	0.718625  
383.500000	0.641604  
384.000000	0.613786  
384.500000	0.574107  
385.000000	0.540905  
385.500000	0.567087  
386.000000	0.634268  
386.500000	0.677355  
387.000000	0.745836  
387.500000	0.793516  
388.000000	0.830788  
388.500000	0.876737  
389.000000	0.836296  
389.500000	0.759234  
390.000000	0.633828  
390.500000	0.543974  
391.000000	0.445647  
391.500000	0.420455  
392.000000	0.372834  
392.500000	0.359648  
393.000000	0.433719  
393.500000	0.526046  
394.000000	0.646841  
394.500000	0.759815  
395.000000	0.829071  
395.500000	0.870845  
396.000000	0.976073  
396.500000	1.056058  
397.000000	1.074972  
397.500000	1.078532  
398.000000	1.023552  
398.500000	0.948993  
399.000000	0.883454  
399.500000	0.791554  
400.000000	0.658444  
400.500000	0.593951  
401.000000	0.573423  
401.500000	0.552984  
402.000000	0.543101  
402.500000	0.528727  
403.000000	0.488062  
403.500000	0.485270  
404.000000	0.530351  
404.500000	0.514956  
405.000000	0.522919  
405.500000	0.579631  
406.000000	0.663942  
406.500000	0.742856  
407.000000	0.847740  
407.500000	0.935816  
408.000000	0.989060  
408.500000	1.099333  
409.000000	1.160655  
409.500000	1.205020  
410.000000	1.212422  
410.500000	1.207850  
411.000000	1.162960  
411.500000	1.127131  
412.000000	1.073180  
412.500000	0.977047  
413.000000	0.911782  
413.500000	0.828290  
414.000000	0.748516  
414.500000	0.647726  
415.000000	0.559066  
415.500000	0.490843  
416.000000	0.463472  
416.500000	0.481631  
417.000000	0.510184  
417.500000	0.534686  
418.000000	0.541877  
418.500000	0.543918  
419.000000	0.533143  
419.500000	0.524093  
420.000000	0.539562  
420.500000	0.567915  
421.000000	0.617158  
421.500000	0.685147  
422.000000	0.758713  
422.500000	0.802870  
423.000000	0.802425  
423.500000	0.751106  
424.000000	0.677531  
424.500000	0.640078  
425.000000	0.602646  
425.500000	0.575839  
426.000000	0.557756  
426.500000	0.576728  
427.000000	0.607505  
427.500000	0.644170  
428.000000	0.635019  
428.500000	0.592256  
429.000000	0.595940  
429.500000	0.591608  
430.000000	0.591974  
430.500000	0.568451  
431.000000	0.567999  
431.500000	0.572802  
432.000000	0.602599  
432.500000	0.606683  
433.000000	0.571945  
433.500000	0.571258  
434.000000	0.565566  
434.500000	0.567303  
435.000000	0.555174  
435.500000	0.559748  
436.000000	0.565902  
436.500000	0.593236  
437.000000	0.609521  
437.500000	0.619334  
438.000000	0.638411  
438.500000	0.640904  
439.000000	0.651785  
439.500000	0.653963  
440.000000	0.650815  
440.500000	0.655311  
441.000000	0.657086  
441.500000	0.646513  
442.000000	0.634797  
442.500000	0.616841  
443.000000	0.585895  
443.500000	0.561181  
444.000000	0.530509  
444.500000	0.491096  

