PE FL                   SPECTRUM    ASCII       PEDS        1.60        
  -1
PM4A4F~1
23/10/10
10:42:22.00
23/10/10
10:42:22.00


444.500000
1









LS55
35.00
5.00
5.00
SCAN
1
20
100
100
0
500
0
2
0
1
7
ON
435 365 
1 0 0
#HDR
-1
-1
#GR
NM

0.00002384185791015625
0.0
300.000000
0.500000
290
8
6.129244
-0.420275
#DATA
300.000000	2.032000  
300.500000	1.911193  
301.000000	1.956830  
301.500000	1.978817  
302.000000	2.068291  
302.500000	2.270295  
303.000000	2.233770  
303.500000	2.054833  
304.000000	1.642825  
304.500000	1.279970  
305.000000	1.038920  
305.500000	1.101412  
306.000000	1.522211  
306.500000	2.256195  
307.000000	3.261628  
307.500000	4.238029  
308.000000	4.792929  
308.500000	4.855018  
309.000000	4.753989  
309.500000	4.487738  
310.000000	4.148479  
310.500000	3.938415  
311.000000	3.819630  
311.500000	3.762890  
312.000000	3.945234  
312.500000	4.130506  
313.000000	4.249883  
313.500000	4.411538  
314.000000	4.551502  
314.500000	4.753440  
315.000000	5.108185  
315.500000	5.509712  
316.000000	5.635200  
316.500000	5.673165  
317.000000	5.477025  
317.500000	5.027783  
318.000000	4.283683  
318.500000	3.264913  
319.000000	2.544128  
319.500000	2.079123  
320.000000	2.258556  
320.500000	2.644019  
321.000000	3.155062  
321.500000	3.950199  
322.000000	4.861375  
322.500000	5.524593  
323.000000	5.844408  
323.500000	6.129244  
324.000000	6.094749  
324.500000	6.092296  
325.000000	5.818623  
325.500000	5.325286  
326.000000	4.945841  
326.500000	4.842439  
327.000000	4.603120  
327.500000	4.293068  
328.000000	4.056451  
328.500000	3.731870  
329.000000	3.600687  
329.500000	3.421875  
330.000000	3.185130  
330.500000	3.024366  
331.000000	3.213665  
331.500000	3.366394  
332.000000	3.549385  
332.500000	3.676351  
333.000000	3.640416  
333.500000	3.600573  
334.000000	3.469246  
334.500000	3.309242  
335.000000	3.004575  
335.500000	2.725926  
336.000000	2.439959  
336.500000	2.298491  
337.000000	2.236209  
337.500000	2.112909  
338.000000	2.030085  
338.500000	2.071563  
339.000000	2.410436  
339.500000	2.619732  
340.000000	2.720412  
340.500000	2.652959  
341.000000	2.406754  
341.500000	2.058035  
342.000000	1.660798  
342.500000	1.192229  
343.000000	0.763287  
343.500000	0.682002  
344.000000	0.747496  
344.500000	0.982391  
345.000000	1.288715  
345.500000	1.396792  
346.000000	1.369449  
346.500000	1.347415  
347.000000	1.210224  
347.500000	1.017697  
348.000000	0.878331  
348.500000	0.766164  
349.000000	0.696545  
349.500000	0.791441  
350.000000	0.880155  
350.500000	0.919626  
351.000000	0.956479  
351.500000	0.959930  
352.000000	1.060628  
352.500000	1.139876  
353.000000	1.163917  
353.500000	1.068929  
354.000000	0.994650  
354.500000	0.889952  
355.000000	0.771070  
355.500000	0.633482  
356.000000	0.425799  
356.500000	0.379698  
357.000000	0.455529  
357.500000	0.545920  
358.000000	0.592231  
358.500000	0.620048  
359.000000	0.559229  
359.500000	0.499673  
360.000000	0.345960  
360.500000	0.103403  
361.000000	-0.060780 
361.500000	-0.124162 
362.000000	-0.112943 
362.500000	-0.105798 
363.000000	-0.018675 
363.500000	0.056455  
364.000000	0.173445  
364.500000	0.180320  
365.000000	0.117923  
365.500000	0.117334  
366.000000	0.131145  
366.500000	0.209896  
367.000000	0.300828  
367.500000	0.428838  
368.000000	0.584177  
368.500000	0.769243  
369.000000	0.765771  
369.500000	0.696874  
370.000000	0.631079  
370.500000	0.501548  
371.000000	0.367950  
371.500000	0.257752  
372.000000	0.148519  
372.500000	0.105477  
373.000000	0.123149  
373.500000	0.045666  
374.000000	-0.073402 
374.500000	-0.165475 
375.000000	-0.277803 
375.500000	-0.392528 
376.000000	-0.420275 
376.500000	-0.390303 
377.000000	-0.251723 
377.500000	-0.005383 
378.000000	0.262639  
378.500000	0.490676  
379.000000	0.699925  
379.500000	0.801015  
380.000000	0.795469  
380.500000	0.735451  
381.000000	0.628351  
381.500000	0.557592  
382.000000	0.517590  
382.500000	0.565556  
383.000000	0.661527  
383.500000	0.806927  
384.000000	0.942285  
384.500000	1.022112  
385.000000	1.008880  
385.500000	0.897066  
386.000000	0.773849  
386.500000	0.621278  
387.000000	0.496535  
387.500000	0.399066  
388.000000	0.342938  
388.500000	0.338563  
389.000000	0.412279  
389.500000	0.469501  
390.000000	0.492534  
390.500000	0.507265  
391.000000	0.488345  
391.500000	0.460083  
392.000000	0.431495  
392.500000	0.397636  
393.000000	0.370255  
393.500000	0.443325  
394.000000	0.509866  
394.500000	0.577954  
395.000000	0.631875  
395.500000	0.646611  
396.000000	0.619657  
396.500000	0.526660  
397.000000	0.391680  
397.500000	0.221748  
398.000000	0.109746  
398.500000	0.025726  
399.000000	0.008847  
399.500000	0.055298  
400.000000	0.143999  
400.500000	0.245522  
401.000000	0.305358  
401.500000	0.334991  
402.000000	0.340950  
402.500000	0.347300  
403.000000	0.329907  
403.500000	0.294840  
404.000000	0.252846  
404.500000	0.256698  
405.000000	0.314250  
405.500000	0.348162  
406.000000	0.384266  
406.500000	0.449693  
407.000000	0.520106  
407.500000	0.604800  
408.000000	0.641436  
408.500000	0.639937  
409.000000	0.632646  
409.500000	0.661130  
410.000000	0.678142  
410.500000	0.658464  
411.000000	0.633675  
411.500000	0.614431  
412.000000	0.611717  
412.500000	0.553889  
413.000000	0.468756  
413.500000	0.371043  
414.000000	0.291958  
414.500000	0.255658  
415.000000	0.261819  
415.500000	0.306608  
416.000000	0.393270  
416.500000	0.520958  
417.000000	0.615955  
417.500000	0.701611  
418.000000	0.746378  
418.500000	0.733140  
419.000000	0.689628  
419.500000	0.640309  
420.000000	0.565608  
420.500000	0.514839  
421.000000	0.494819  
421.500000	0.481075  
422.000000	0.480019  
422.500000	0.507168  
423.000000	0.545333  
423.500000	0.566457  
424.000000	0.572601  
424.500000	0.560242  
425.000000	0.529233  
425.500000	0.515835  
426.000000	0.504704  
426.500000	0.477864  
427.000000	0.452909  
427.500000	0.472605  
428.000000	0.519310  
428.500000	0.567225  
429.000000	0.613254  
429.500000	0.628825  
430.000000	0.651347  
430.500000	0.658245  
431.000000	0.620158  
431.500000	0.536856  
432.000000	0.475510  
432.500000	0.427410  
433.000000	0.397581  
433.500000	0.382266  
434.000000	0.353029  
434.500000	0.338365  
435.000000	0.335301  
435.500000	0.323272  
436.000000	0.296609  
436.500000	0.277306  
437.000000	0.249137  
437.500000	0.243181  
438.000000	0.260153  
438.500000	0.275418  
439.000000	0.287497  
439.500000	0.297453  
440.000000	0.295326  
440.500000	0.294680  
441.000000	0.294552  
441.500000	0.283136  
442.000000	0.280605  
442.500000	0.305261  
443.000000	0.336274  
443.500000	0.374641  
444.000000	0.411432  
444.500000	0.445438  

