PE FL                   SPECTRUM    ASCII       PEDS        1.60        
  -1
PM4A2F~1
23/10/10
10:41:14.00
23/10/10
10:41:14.00


444.500000
1









LS55
25.00
5.00
5.00
SCAN
1
20
100
100
0
500
0
2
0
1
7
ON
435 365 
1 0 0
#HDR
-1
-1
#GR
NM

0.00002384185791015625
0.0
300.000000
0.500000
290
8
9.198000
-0.659336
#DATA
300.000000	9.198000  
300.500000	6.317674  
301.000000	3.760339  
301.500000	1.955380  
302.000000	1.150139  
302.500000	1.076514  
303.000000	1.595189  
303.500000	2.415740  
304.000000	3.108182  
304.500000	3.577290  
305.000000	3.932596  
305.500000	3.967997  
306.000000	3.766863  
306.500000	3.867784  
307.000000	4.004319  
307.500000	4.024200  
308.000000	4.213519  
308.500000	4.161970  
309.000000	3.803770  
309.500000	3.666922  
310.000000	3.348160  
310.500000	2.969804  
311.000000	2.746091  
311.500000	2.753719  
312.000000	2.842197  
312.500000	3.005557  
313.000000	3.239516  
313.500000	3.092774  
314.000000	2.915425  
314.500000	2.569955  
315.000000	2.108952  
315.500000	1.693238  
316.000000	1.600106  
316.500000	1.611342  
317.000000	1.965880  
317.500000	2.564944  
318.000000	3.012810  
318.500000	3.449282  
319.000000	3.777847  
319.500000	3.801377  
320.000000	3.536630  
320.500000	3.218995  
321.000000	2.734058  
321.500000	2.444990  
322.000000	2.248260  
322.500000	2.173669  
323.000000	2.171006  
323.500000	2.366356  
324.000000	2.587155  
324.500000	2.643019  
325.000000	2.791859  
325.500000	2.728118  
326.000000	2.667090  
326.500000	2.535747  
327.000000	2.314941  
327.500000	1.963189  
328.000000	1.650923  
328.500000	1.401524  
329.000000	0.955128  
329.500000	0.730608  
330.000000	0.598625  
330.500000	0.476024  
331.000000	0.413264  
331.500000	0.451105  
332.000000	0.562961  
332.500000	0.737927  
333.000000	0.998855  
333.500000	0.985766  
334.000000	1.001688  
334.500000	0.892029  
335.000000	0.692615  
335.500000	0.493103  
336.000000	0.365029  
336.500000	0.341978  
337.000000	0.354630  
337.500000	0.479141  
338.000000	0.465430  
338.500000	0.523305  
339.000000	0.426306  
339.500000	0.297811  
340.000000	0.141635  
340.500000	0.058330  
341.000000	0.126638  
341.500000	0.209404  
342.000000	0.460124  
342.500000	0.664557  
343.000000	0.866651  
343.500000	0.930613  
344.000000	0.913778  
344.500000	0.763977  
345.000000	0.591097  
345.500000	0.536885  
346.000000	0.461576  
346.500000	0.524851  
347.000000	0.678174  
347.500000	0.865981  
348.000000	1.011100  
348.500000	1.073825  
349.000000	1.042500  
349.500000	0.908662  
350.000000	0.770475  
350.500000	0.567213  
351.000000	0.460131  
351.500000	0.488009  
352.000000	0.597933  
352.500000	0.791176  
353.000000	0.960074  
353.500000	1.148607  
354.000000	1.303001  
354.500000	1.370872  
355.000000	1.352588  
355.500000	1.230362  
356.000000	1.108743  
356.500000	1.031845  
357.000000	0.984254  
357.500000	0.875170  
358.000000	0.875382  
358.500000	0.988918  
359.000000	1.145588  
359.500000	1.296652  
360.000000	1.364232  
360.500000	1.408153  
361.000000	1.430394  
361.500000	1.362639  
362.000000	1.218671  
362.500000	1.038372  
363.000000	0.806060  
363.500000	0.542561  
364.000000	0.259633  
364.500000	-0.083664 
365.000000	-0.404957 
365.500000	-0.587371 
366.000000	-0.659336 
366.500000	-0.569253 
367.000000	-0.353924 
367.500000	-0.041315 
368.000000	0.401253  
368.500000	0.837831  
369.000000	1.211605  
369.500000	1.412224  
370.000000	1.436838  
370.500000	1.333543  
371.000000	1.129365  
371.500000	0.879916  
372.000000	0.630322  
372.500000	0.502767  
373.000000	0.432286  
373.500000	0.481259  
374.000000	0.506153  
374.500000	0.506570  
375.000000	0.531077  
375.500000	0.519445  
376.000000	0.484567  
376.500000	0.386827  
377.000000	0.388752  
377.500000	0.354868  
378.000000	0.407235  
378.500000	0.497235  
379.000000	0.632258  
379.500000	0.781110  
380.000000	0.862928  
380.500000	0.926644  
381.000000	0.878223  
381.500000	0.897494  
382.000000	0.834573  
382.500000	0.762539  
383.000000	0.671110  
383.500000	0.617981  
384.000000	0.606859  
384.500000	0.610655  
385.000000	0.702354  
385.500000	0.780807  
386.000000	0.939632  
386.500000	1.022252  
387.000000	1.076891  
387.500000	1.086967  
388.000000	1.093655  
388.500000	1.128577  
389.000000	1.129037  
389.500000	1.147440  
390.000000	1.190707  
390.500000	1.242071  
391.000000	1.243277  
391.500000	1.220383  
392.000000	1.130763  
392.500000	1.033580  
393.000000	0.930916  
393.500000	0.824052  
394.000000	0.731934  
394.500000	0.716169  
395.000000	0.738155  
395.500000	0.765776  
396.000000	0.829816  
396.500000	0.876924  
397.000000	0.921569  
397.500000	0.932865  
398.000000	0.940875  
398.500000	0.907648  
399.000000	0.861009  
399.500000	0.825091  
400.000000	0.761687  
400.500000	0.708229  
401.000000	0.653295  
401.500000	0.625745  
402.000000	0.614521  
402.500000	0.654231  
403.000000	0.695564  
403.500000	0.711041  
404.000000	0.770594  
404.500000	0.818923  
405.000000	0.860721  
405.500000	0.876297  
406.000000	0.891190  
406.500000	0.913035  
407.000000	0.964671  
407.500000	0.999183  
408.000000	1.023814  
408.500000	1.064544  
409.000000	1.072333  
409.500000	1.044278  
410.000000	0.996826  
410.500000	0.949915  
411.000000	0.913275  
411.500000	0.913521  
412.000000	0.908396  
412.500000	0.951170  
413.000000	1.053079  
413.500000	1.131729  
414.000000	1.150371  
414.500000	1.116385  
415.000000	1.031216  
415.500000	0.913671  
416.000000	0.826504  
416.500000	0.703896  
417.000000	0.645721  
417.500000	0.646323  
418.000000	0.695868  
418.500000	0.750415  
419.000000	0.796759  
419.500000	0.798253  
420.000000	0.764653  
420.500000	0.767755  
421.000000	0.722195  
421.500000	0.704405  
422.000000	0.675666  
422.500000	0.680543  
423.000000	0.711021  
423.500000	0.748628  
424.000000	0.764608  
424.500000	0.760720  
425.000000	0.800600  
425.500000	0.809531  
426.000000	0.836900  
426.500000	0.828918  
427.000000	0.818417  
427.500000	0.799844  
428.000000	0.773641  
428.500000	0.735389  
429.000000	0.683159  
429.500000	0.649880  
430.000000	0.625155  
430.500000	0.630642  
431.000000	0.654622  
431.500000	0.680404  
432.000000	0.721210  
432.500000	0.761263  
433.000000	0.790590  
433.500000	0.812976  
434.000000	0.811911  
434.500000	0.797824  
435.000000	0.771810  
435.500000	0.755680  
436.000000	0.723891  
436.500000	0.696633  
437.000000	0.662473  
437.500000	0.631470  
438.000000	0.610969  
438.500000	0.604335  
439.000000	0.603296  
439.500000	0.597013  
440.000000	0.605455  
440.500000	0.607542  
441.000000	0.620154  
441.500000	0.623040  
442.000000	0.643447  
442.500000	0.647814  
443.000000	0.658870  
443.500000	0.683906  
444.000000	0.701322  
444.500000	0.720598  

