PE FL                   SPECTRUM    ASCII       PEDS        1.60        
  -1
PM4A6F~1
23/10/10
10:43:30.00
23/10/10
10:43:30.00


444.500000
1









LS55
45.00
5.00
5.00
SCAN
1
20
100
100
0
500
0
2
0
1
7
ON
435 365 
1 0 0
#HDR
-1
-1
#GR
NM

0.00002384185791015625
0.0
300.000000
0.500000
290
8
5.547730
-2.024000
#DATA
300.000000	-2.024000 
300.500000	0.076866  
301.000000	2.087760  
301.500000	3.282236  
302.000000	4.181029  
302.500000	4.615494  
303.000000	4.880806  
303.500000	4.634467  
304.000000	4.929574  
304.500000	5.203161  
305.000000	5.318413  
305.500000	5.478603  
306.000000	5.547730  
306.500000	5.409843  
307.000000	5.240685  
307.500000	5.219417  
308.000000	4.782684  
308.500000	4.600713  
309.000000	4.301900  
309.500000	3.799670  
310.000000	3.457623  
310.500000	3.269092  
311.000000	2.916115  
311.500000	2.741514  
312.000000	2.990030  
312.500000	3.030295  
313.000000	3.095839  
313.500000	2.944095  
314.000000	2.618033  
314.500000	2.474189  
315.000000	2.414491  
315.500000	2.151795  
316.000000	1.875989  
316.500000	2.044307  
317.000000	2.284863  
317.500000	2.484480  
318.000000	2.550176  
318.500000	2.343051  
319.000000	2.322767  
319.500000	2.428312  
320.000000	2.384293  
320.500000	2.148626  
321.000000	1.986705  
321.500000	1.751847  
322.000000	1.467967  
322.500000	1.189716  
323.000000	0.683596  
323.500000	0.197951  
324.000000	-0.090873 
324.500000	-0.325890 
325.000000	-0.427426 
325.500000	-0.381462 
326.000000	-0.170537 
326.500000	0.184603  
327.000000	0.726384  
327.500000	1.067735  
328.000000	1.367624  
328.500000	1.727565  
329.000000	1.969105  
329.500000	2.090098  
330.000000	2.154599  
330.500000	2.063449  
331.000000	2.021672  
331.500000	2.014633  
332.000000	1.842045  
332.500000	1.604501  
333.000000	1.345893  
333.500000	1.122206  
334.000000	0.807698  
334.500000	0.560488  
335.000000	0.350318  
335.500000	0.313777  
336.000000	0.474483  
336.500000	0.736766  
337.000000	0.976852  
337.500000	1.115747  
338.000000	1.230474  
338.500000	1.174099  
339.000000	1.014431  
339.500000	0.774604  
340.000000	0.575323  
340.500000	0.424996  
341.000000	0.334399  
341.500000	0.378927  
342.000000	0.437603  
342.500000	0.475118  
343.000000	0.492161  
343.500000	0.370412  
344.000000	0.213503  
344.500000	0.194066  
345.000000	0.335424  
345.500000	0.356733  
346.000000	0.547982  
346.500000	0.857754  
347.000000	1.200530  
347.500000	1.508244  
348.000000	1.523083  
348.500000	1.380835  
349.000000	1.258113  
349.500000	1.320595  
350.000000	1.181724  
350.500000	1.071907  
351.000000	1.041898  
351.500000	1.122038  
352.000000	1.305324  
352.500000	1.342552  
353.000000	1.224864  
353.500000	1.102324  
354.000000	1.117707  
354.500000	1.107594  
355.000000	1.095696  
355.500000	1.080580  
356.000000	1.220217  
356.500000	1.498627  
357.000000	1.768508  
357.500000	1.972778  
358.000000	2.142385  
358.500000	2.246436  
359.000000	2.354636  
359.500000	2.431432  
360.000000	2.369103  
360.500000	2.243208  
361.000000	2.109956  
361.500000	1.978688  
362.000000	1.784990  
362.500000	1.655183  
363.000000	1.461014  
363.500000	1.312693  
364.000000	1.244021  
364.500000	1.193789  
365.000000	1.154136  
365.500000	1.232939  
366.000000	1.417189  
366.500000	1.602421  
367.000000	1.904974  
367.500000	2.155959  
368.000000	2.362690  
368.500000	2.511162  
369.000000	2.583024  
369.500000	2.524457  
370.000000	2.394303  
370.500000	2.305922  
371.000000	2.208483  
371.500000	2.137401  
372.000000	2.096605  
372.500000	2.143800  
373.000000	2.244901  
373.500000	2.341737  
374.000000	2.418267  
374.500000	2.436582  
375.000000	2.394139  
375.500000	2.349592  
376.000000	2.181724  
376.500000	1.963643  
377.000000	1.783212  
377.500000	1.666215  
378.000000	1.533747  
378.500000	1.475245  
379.000000	1.497680  
379.500000	1.499297  
380.000000	1.589791  
380.500000	1.647723  
381.000000	1.774727  
381.500000	1.925641  
382.000000	2.144091  
382.500000	2.248326  
383.000000	2.265904  
383.500000	2.301179  
384.000000	2.232766  
384.500000	2.064042  
385.000000	1.796808  
385.500000	1.569682  
386.000000	1.401957  
386.500000	1.351138  
387.000000	1.320943  
387.500000	1.279466  
388.000000	1.338356  
388.500000	1.429672  
389.000000	1.485893  
389.500000	1.454254  
390.000000	1.416060  
390.500000	1.379989  
391.000000	1.323946  
391.500000	1.227819  
392.000000	1.073551  
392.500000	0.940928  
393.000000	0.802084  
393.500000	0.691424  
394.000000	0.581993  
394.500000	0.476629  
395.000000	0.465927  
395.500000	0.463926  
396.000000	0.461952  
396.500000	0.492425  
397.000000	0.568811  
397.500000	0.689380  
398.000000	0.821404  
398.500000	0.940240  
399.000000	1.031069  
399.500000	1.119779  
400.000000	1.112426  
400.500000	1.029313  
401.000000	0.905436  
401.500000	0.757738  
402.000000	0.649108  
402.500000	0.565746  
403.000000	0.521030  
403.500000	0.516252  
404.000000	0.572532  
404.500000	0.599411  
405.000000	0.618432  
405.500000	0.588603  
406.000000	0.537966  
406.500000	0.495488  
407.000000	0.458258  
407.500000	0.393475  
408.000000	0.334995  
408.500000	0.327685  
409.000000	0.325358  
409.500000	0.341390  
410.000000	0.313581  
410.500000	0.298928  
411.000000	0.309837  
411.500000	0.378163  
412.000000	0.434158  
412.500000	0.474466  
413.000000	0.498630  
413.500000	0.547711  
414.000000	0.597348  
414.500000	0.604167  
415.000000	0.557252  
415.500000	0.523985  
416.000000	0.527231  
416.500000	0.502335  
417.000000	0.461934  
417.500000	0.419436  
418.000000	0.391122  
418.500000	0.358526  
419.000000	0.307820  
419.500000	0.223843  
420.000000	0.148722  
420.500000	0.099544  
421.000000	0.065361  
421.500000	0.046892  
422.000000	0.064383  
422.500000	0.130413  
423.000000	0.204364  
423.500000	0.256445  
424.000000	0.278325  
424.500000	0.261049  
425.000000	0.215299  
425.500000	0.181566  
426.000000	0.122269  
426.500000	0.071687  
427.000000	0.072339  
427.500000	0.111741  
428.000000	0.156167  
428.500000	0.215718  
429.000000	0.246794  
429.500000	0.250870  
430.000000	0.258312  
430.500000	0.247427  
431.000000	0.215620  
431.500000	0.190768  
432.000000	0.163892  
432.500000	0.141147  
433.000000	0.115954  
433.500000	0.082012  
434.000000	0.059686  
434.500000	0.069601  
435.000000	0.114091  
435.500000	0.180710  
436.000000	0.270657  
436.500000	0.343867  
437.000000	0.414735  
437.500000	0.460715  
438.000000	0.469011  
438.500000	0.455947  
439.000000	0.425060  
439.500000	0.387586  
440.000000	0.353933  
440.500000	0.333464  
441.000000	0.293073  
441.500000	0.262190  
442.000000	0.234415  
442.500000	0.205833  
443.000000	0.186400  
443.500000	0.181400  
444.000000	0.196507  
444.500000	0.213170  

