PE FL                   SPECTRUM    ASCII       PEDS        1.60        
  -1
PMEF8D~1
23/10/12
19:24:29.00
23/10/12
19:24:29.00


444.500000
1









LS55
40.00
5.00
5.00
SCAN
1
20
100
500
0
500
0
2
0
1
7
ON
435 365 
1 0 0
#HDR
-1
-1
#GR
NM

0.00002384185791015625
0.0
250.000000
0.500000
390
8
39.616579
-4.544035
#DATA
250.000000	7.046000  
250.500000	4.173771  
251.000000	1.857629  
251.500000	0.087671  
252.000000	-1.541927 
252.500000	-3.059124 
253.000000	-3.962856 
253.500000	-4.424172 
254.000000	-4.544035 
254.500000	-4.379859 
255.000000	-3.993027 
255.500000	-3.112723 
256.000000	-1.811030 
256.500000	-0.590179 
257.000000	0.247638  
257.500000	0.431236  
258.000000	0.085460  
258.500000	-0.696479 
259.000000	-1.642372 
259.500000	-2.527118 
260.000000	-3.044803 
260.500000	-3.177841 
261.000000	-3.038833 
261.500000	-2.554477 
262.000000	-2.294661 
262.500000	-1.963369 
263.000000	-1.590689 
263.500000	-1.193938 
264.000000	-0.707126 
264.500000	-0.070476 
265.000000	0.643481  
265.500000	1.350194  
266.000000	2.000932  
266.500000	1.788082  
267.000000	1.105569  
267.500000	0.214331  
268.000000	-0.825319 
268.500000	-1.922397 
269.000000	-2.781202 
269.500000	-3.437524 
270.000000	-3.681391 
270.500000	-3.427465 
271.000000	-2.995294 
271.500000	-2.586955 
272.000000	-2.358625 
272.500000	-2.171217 
273.000000	-2.016351 
273.500000	-1.949420 
274.000000	-2.147509 
274.500000	-2.483430 
275.000000	-2.550484 
275.500000	-2.503370 
276.000000	-2.322218 
276.500000	-1.983915 
277.000000	-1.500170 
277.500000	-1.110864 
278.000000	-0.766749 
278.500000	-0.448876 
279.000000	-0.282159 
279.500000	-0.085181 
280.000000	0.022491  
280.500000	0.285449  
281.000000	0.613195  
281.500000	1.108019  
282.000000	1.193125  
282.500000	0.918886  
283.000000	0.616498  
283.500000	0.388986  
284.000000	0.125523  
284.500000	-0.136305 
285.000000	-0.004229 
285.500000	0.326834  
286.000000	1.029228  
286.500000	1.339815  
287.000000	1.419182  
287.500000	1.279990  
288.000000	1.091564  
288.500000	0.453784  
289.000000	-0.548168 
289.500000	-1.334927 
290.000000	-1.904410 
290.500000	-2.265679 
291.000000	-2.812447 
291.500000	-3.007044 
292.000000	-3.073023 
292.500000	-2.862673 
293.000000	-2.655214 
293.500000	-2.565847 
294.000000	-2.596748 
294.500000	-2.230894 
295.000000	-1.967932 
295.500000	-1.919463 
296.000000	-1.668299 
296.500000	-1.406805 
297.000000	-1.100818 
297.500000	-0.856901 
298.000000	-0.234354 
298.500000	0.159699  
299.000000	0.850926  
299.500000	1.347747  
300.000000	1.832234  
300.500000	2.240086  
301.000000	2.682433  
301.500000	3.175339  
302.000000	3.356475  
302.500000	4.070166  
303.000000	4.932333  
303.500000	6.222726  
304.000000	7.430127  
304.500000	8.757012  
305.000000	10.012376 
305.500000	11.483990 
306.000000	13.035976 
306.500000	14.246664 
307.000000	15.788856 
307.500000	17.577204 
308.000000	19.488476 
308.500000	21.316018 
309.000000	22.842301 
309.500000	23.804344 
310.000000	24.532084 
310.500000	25.015824 
311.000000	25.263108 
311.500000	25.588333 
312.000000	26.173691 
312.500000	26.836043 
313.000000	27.801526 
313.500000	28.931429 
314.000000	30.106537 
314.500000	31.385440 
315.000000	32.580501 
315.500000	33.567489 
316.000000	34.534102 
316.500000	35.555743 
317.000000	36.149369 
317.500000	36.518765 
318.000000	37.107337 
318.500000	37.384864 
319.000000	37.478289 
319.500000	37.298429 
320.000000	36.844153 
320.500000	36.399845 
321.000000	36.238244 
321.500000	36.069011 
322.000000	35.951243 
322.500000	36.525931 
323.000000	37.191406 
323.500000	38.013821 
324.000000	38.562832 
324.500000	38.611474 
325.000000	38.080277 
325.500000	36.901150 
326.000000	35.203028 
326.500000	33.344762 
327.000000	32.117448 
327.500000	31.323992 
328.000000	30.844276 
328.500000	30.692925 
329.000000	30.798784 
329.500000	31.108902 
330.000000	30.834213 
330.500000	30.149989 
331.000000	29.212490 
331.500000	28.311161 
332.000000	27.604254 
332.500000	26.611631 
333.000000	25.688909 
333.500000	25.008979 
334.000000	25.088012 
334.500000	25.134397 
335.000000	25.006161 
335.500000	24.772929 
336.000000	24.458576 
336.500000	24.164538 
337.000000	23.542050 
337.500000	22.723395 
338.000000	21.610812 
338.500000	21.079239 
339.000000	20.840929 
339.500000	20.757022 
340.000000	21.094774 
340.500000	21.781685 
341.000000	22.332910 
341.500000	22.812146 
342.000000	22.999085 
342.500000	22.714890 
343.000000	22.397693 
343.500000	21.981494 
344.000000	21.336658 
344.500000	20.966438 
345.000000	21.070655 
345.500000	21.124121 
346.000000	21.414274 
346.500000	21.669573 
347.000000	21.948077 
347.500000	22.458140 
348.000000	22.897916 
348.500000	23.164007 
349.000000	23.322499 
349.500000	23.640713 
350.000000	23.781980 
350.500000	23.948159 
351.000000	23.824297 
351.500000	23.572323 
352.000000	23.385170 
352.500000	23.086481 
353.000000	23.039437 
353.500000	23.156403 
354.000000	23.554530 
354.500000	24.002418 
355.000000	24.569356 
355.500000	25.017782 
356.000000	25.188384 
356.500000	25.211661 
357.000000	24.826573 
357.500000	24.449444 
358.000000	24.123807 
358.500000	24.065572 
359.000000	24.210681 
359.500000	24.522540 
360.000000	24.977896 
360.500000	25.334063 
361.000000	25.733123 
361.500000	25.949355 
362.000000	25.960349 
362.500000	26.049370 
363.000000	26.297635 
363.500000	26.812021 
364.000000	27.636483 
364.500000	28.528603 
365.000000	29.227131 
365.500000	29.947229 
366.000000	30.461744 
366.500000	30.508410 
367.000000	30.466294 
367.500000	30.253972 
368.000000	29.972589 
368.500000	29.984939 
369.000000	30.151575 
369.500000	30.423354 
370.000000	31.061953 
370.500000	31.782350 
371.000000	32.183315 
371.500000	32.658177 
372.000000	32.964496 
372.500000	33.159542 
373.000000	33.283956 
373.500000	33.388325 
374.000000	33.536258 
374.500000	34.013238 
375.000000	34.651511 
375.500000	35.261114 
376.000000	35.784544 
376.500000	36.183326 
377.000000	36.558421 
377.500000	36.529156 
378.000000	36.274582 
378.500000	35.774015 
379.000000	35.310198 
379.500000	35.141984 
380.000000	35.357400 
380.500000	35.712882 
381.000000	36.183454 
381.500000	36.904746 
382.000000	37.600702 
382.500000	38.421938 
383.000000	38.947299 
383.500000	39.165173 
384.000000	39.314567 
384.500000	39.476398 
385.000000	39.549302 
385.500000	39.616579 
386.000000	39.614146 
386.500000	39.456453 
387.000000	39.491247 
387.500000	39.333461 
388.000000	38.995968 
388.500000	38.712582 
389.000000	38.392761 
389.500000	38.169540 
390.000000	38.138043 
390.500000	38.287354 
391.000000	38.370290 
391.500000	38.581191 
392.000000	38.789412 
392.500000	38.842061 
393.000000	38.987783 
393.500000	38.994411 
394.000000	38.889072 
394.500000	38.722791 
395.000000	38.653200 
395.500000	38.506648 
396.000000	38.294094 
396.500000	38.120532 
397.000000	37.794978 
397.500000	37.559938 
398.000000	37.325270 
398.500000	37.072050 
399.000000	36.735823 
399.500000	36.435221 
400.000000	36.245389 
400.500000	36.030487 
401.000000	35.870770 
401.500000	35.656133 
402.000000	35.489292 
402.500000	35.373807 
403.000000	35.187705 
403.500000	34.879003 
404.000000	34.569075 
404.500000	34.436287 
405.000000	34.358662 
405.500000	34.213908 
406.000000	34.152268 
406.500000	34.189084 
407.000000	34.418401 
407.500000	34.559809 
408.000000	34.434165 
408.500000	34.158856 
409.000000	33.926471 
409.500000	33.646640 
410.000000	33.267349 
410.500000	32.898693 
411.000000	32.645043 
411.500000	32.641007 
412.000000	32.654802 
412.500000	32.548870 
413.000000	32.386513 
413.500000	32.230462 
414.000000	32.020431 
414.500000	31.778590 
415.000000	31.473451 
415.500000	31.189233 
416.000000	30.970542 
416.500000	30.748657 
417.000000	30.549818 
417.500000	30.317166 
418.000000	29.942004 
418.500000	29.459283 
419.000000	28.940896 
419.500000	28.383825 
420.000000	27.956278 
420.500000	27.652926 
421.000000	27.397063 
421.500000	27.309412 
422.000000	27.303524 
422.500000	27.246711 
423.000000	27.142541 
423.500000	26.967912 
424.000000	26.649352 
424.500000	26.301140 
425.000000	25.949591 
425.500000	25.520514 
426.000000	25.170165 
426.500000	24.874469 
427.000000	24.652711 
427.500000	24.470991 
428.000000	24.294959 
428.500000	24.026782 
429.000000	23.747990 
429.500000	23.483385 
430.000000	23.197486 
430.500000	22.939329 
431.000000	22.694307 
431.500000	22.541612 
432.000000	22.436849 
432.500000	22.309194 
433.000000	22.120646 
433.500000	21.919627 
434.000000	21.681893 
434.500000	21.397939 
435.000000	21.088854 
435.500000	20.811872 
436.000000	20.619125 
436.500000	20.465679 
437.000000	20.382713 
437.500000	20.328317 
438.000000	20.248071 
438.500000	20.140404 
439.000000	20.010211 
439.500000	19.884624 
440.000000	19.827876 
440.500000	19.824817 
441.000000	19.799983 
441.500000	19.819608 
442.000000	19.849728 
442.500000	19.832416 
443.000000	19.728511 
443.500000	19.488975 
444.000000	19.212945 
444.500000	18.995339 

