PE FL                   SPECTRUM    ASCII       PEDS        1.60        
  -1
PMEF6D~1
23/10/12
19:23:09.00
23/10/12
19:23:09.00


444.500000
1









LS55
30.00
5.00
5.00
SCAN
1
20
100
500
0
500
0
2
0
1
7
ON
435 365 
1 0 0
#HDR
-1
-1
#GR
NM

0.00002384185791015625
0.0
250.000000
0.500000
390
8
31.386019
-4.185531
#DATA
250.000000	3.048000  
250.500000	2.598991  
251.000000	2.426409  
251.500000	2.017849  
252.000000	1.065513  
252.500000	-0.089030 
253.000000	-1.071647 
253.500000	-1.743936 
254.000000	-2.048304 
254.500000	-2.649536 
255.000000	-3.036052 
255.500000	-2.995816 
256.000000	-2.731258 
256.500000	-2.655139 
257.000000	-2.606969 
257.500000	-2.705712 
258.000000	-2.687249 
258.500000	-2.578480 
259.000000	-2.668798 
259.500000	-2.674416 
260.000000	-2.526905 
260.500000	-2.278869 
261.000000	-2.325423 
261.500000	-2.202214 
262.000000	-2.126283 
262.500000	-2.128043 
263.000000	-2.250527 
263.500000	-2.488029 
264.000000	-2.719255 
264.500000	-2.993088 
265.000000	-3.426410 
265.500000	-3.992642 
266.000000	-4.185531 
266.500000	-3.847071 
267.000000	-3.316186 
267.500000	-2.721991 
268.000000	-1.909742 
268.500000	-0.841616 
269.000000	0.190372  
269.500000	0.785999  
270.000000	0.688928  
270.500000	0.150474  
271.000000	-0.445992 
271.500000	-1.429061 
272.000000	-2.475978 
272.500000	-3.346676 
273.000000	-3.761940 
273.500000	-3.635397 
274.000000	-3.179622 
274.500000	-2.556643 
275.000000	-1.660741 
275.500000	-0.685882 
276.000000	0.211652  
276.500000	0.908912  
277.000000	1.238651  
277.500000	1.127719  
278.000000	0.691171  
278.500000	-0.040868 
279.000000	-1.035660 
279.500000	-1.813129 
280.000000	-2.475032 
280.500000	-2.715933 
281.000000	-2.381682 
281.500000	-1.928356 
282.000000	-1.257680 
282.500000	-0.619070 
283.000000	-0.121574 
283.500000	0.210384  
284.000000	0.374950  
284.500000	0.169507  
285.000000	0.151658  
285.500000	0.378091  
286.000000	0.434126  
286.500000	0.551885  
287.000000	0.470166  
287.500000	0.215089  
288.000000	-0.063747 
288.500000	-0.641284 
289.000000	-1.528396 
289.500000	-2.436098 
290.000000	-2.925412 
290.500000	-3.328022 
291.000000	-3.561847 
291.500000	-3.639636 
292.000000	-3.517249 
292.500000	-3.016297 
293.000000	-2.345229 
293.500000	-1.761842 
294.000000	-1.281443 
294.500000	-0.639468 
295.000000	0.016609  
295.500000	0.320733  
296.000000	0.564206  
296.500000	0.853514  
297.000000	1.188189  
297.500000	1.545795  
298.000000	1.752665  
298.500000	1.699317  
299.000000	1.917286  
299.500000	2.116561  
300.000000	2.298458  
300.500000	2.615110  
301.000000	2.995290  
301.500000	3.336513  
302.000000	3.676813  
302.500000	3.547116  
303.000000	3.185519  
303.500000	2.881797  
304.000000	2.308876  
304.500000	1.722455  
305.000000	1.598242  
305.500000	1.965883  
306.000000	3.025232  
306.500000	4.749888  
307.000000	6.908610  
307.500000	9.357817  
308.000000	12.228643 
308.500000	14.732841 
309.000000	16.599144 
309.500000	18.093421 
310.000000	19.024820 
310.500000	19.651556 
311.000000	19.900082 
311.500000	20.066643 
312.000000	19.795294 
312.500000	19.995642 
313.000000	20.575585 
313.500000	21.111000 
314.000000	21.875121 
314.500000	22.478607 
315.000000	23.259312 
315.500000	23.977401 
316.000000	24.959339 
316.500000	25.217710 
317.000000	25.590971 
317.500000	26.181897 
318.000000	26.959054 
318.500000	27.907883 
319.000000	28.631008 
319.500000	29.309467 
320.000000	30.116978 
320.500000	31.164372 
321.000000	31.386019 
321.500000	31.134726 
322.000000	30.657825 
322.500000	30.092273 
323.000000	29.697660 
323.500000	29.107934 
324.000000	28.577695 
324.500000	28.498365 
325.000000	28.737165 
325.500000	28.674937 
326.000000	28.494324 
326.500000	28.188508 
327.000000	27.817066 
327.500000	27.706560 
328.000000	27.605028 
328.500000	27.401356 
329.000000	27.456789 
329.500000	27.487615 
330.000000	27.145937 
330.500000	26.600410 
331.000000	25.710422 
331.500000	24.457019 
332.000000	23.342767 
332.500000	22.282439 
333.000000	21.355057 
333.500000	20.818291 
334.000000	20.366515 
334.500000	19.838306 
335.000000	19.378599 
335.500000	18.636654 
336.000000	17.603340 
336.500000	16.610708 
337.000000	15.835645 
337.500000	15.212721 
338.000000	14.965011 
338.500000	14.873314 
339.000000	14.862822 
339.500000	15.094641 
340.000000	15.369151 
340.500000	15.526965 
341.000000	15.615004 
341.500000	15.706320 
342.000000	15.684905 
342.500000	15.814068 
343.000000	15.916070 
343.500000	15.772136 
344.000000	15.694481 
344.500000	15.744143 
345.000000	15.765953 
345.500000	15.693768 
346.000000	15.603839 
346.500000	15.234986 
347.000000	14.954175 
347.500000	14.782368 
348.000000	14.443630 
348.500000	14.011266 
349.000000	13.666958 
349.500000	13.355961 
350.000000	13.090011 
350.500000	12.950902 
351.000000	12.763448 
351.500000	12.761598 
352.000000	13.011324 
352.500000	13.315634 
353.000000	13.565775 
353.500000	13.879142 
354.000000	14.160808 
354.500000	14.313213 
355.000000	14.429851 
355.500000	14.337917 
356.000000	14.246770 
356.500000	14.232462 
357.000000	14.160942 
357.500000	14.056693 
358.000000	13.965279 
358.500000	13.979379 
359.000000	14.009447 
359.500000	14.130304 
360.000000	14.125748 
360.500000	14.282534 
361.000000	14.656406 
361.500000	15.088347 
362.000000	15.465278 
362.500000	15.892231 
363.000000	16.294619 
363.500000	16.730038 
364.000000	17.200540 
364.500000	17.381440 
365.000000	17.435879 
365.500000	17.545524 
366.000000	17.710833 
366.500000	17.861517 
367.000000	18.180409 
367.500000	18.344574 
368.000000	18.581917 
368.500000	18.923549 
369.000000	19.078300 
369.500000	18.981489 
370.000000	18.781153 
370.500000	18.701791 
371.000000	18.574730 
371.500000	18.757575 
372.000000	18.864348 
372.500000	19.113145 
373.000000	19.612044 
373.500000	20.089187 
374.000000	20.432269 
374.500000	20.596392 
375.000000	20.726664 
375.500000	20.777421 
376.000000	20.990176 
376.500000	21.109124 
377.000000	21.196588 
377.500000	21.306833 
378.000000	21.206457 
378.500000	21.012469 
379.000000	20.732634 
379.500000	20.522050 
380.000000	20.399707 
380.500000	20.490115 
381.000000	20.706282 
381.500000	21.144838 
382.000000	21.823013 
382.500000	22.267110 
383.000000	22.653235 
383.500000	22.933992 
384.000000	23.119297 
384.500000	23.268071 
385.000000	23.364703 
385.500000	23.358458 
386.000000	23.455849 
386.500000	23.677031 
387.000000	23.848157 
387.500000	24.015078 
388.000000	24.145610 
388.500000	24.307153 
389.000000	24.584616 
389.500000	24.798377 
390.000000	24.845587 
390.500000	24.861617 
391.000000	24.731930 
391.500000	24.545375 
392.000000	24.312739 
392.500000	24.154116 
393.000000	24.046317 
393.500000	24.120688 
394.000000	24.339652 
394.500000	24.657196 
395.000000	25.032079 
395.500000	25.282713 
396.000000	25.490151 
396.500000	25.624088 
397.000000	25.699425 
397.500000	25.671390 
398.000000	25.597144 
398.500000	25.498837 
399.000000	25.504190 
399.500000	25.520490 
400.000000	25.466624 
400.500000	25.335796 
401.000000	25.269697 
401.500000	25.301153 
402.000000	25.428077 
402.500000	25.542715 
403.000000	25.557831 
403.500000	25.676241 
404.000000	25.762358 
404.500000	25.756187 
405.000000	25.528042 
405.500000	25.253748 
406.000000	24.872217 
406.500000	24.520060 
407.000000	24.238051 
407.500000	23.866124 
408.000000	23.594052 
408.500000	23.388525 
409.000000	23.156387 
409.500000	22.921525 
410.000000	22.769354 
410.500000	22.679517 
411.000000	22.701920 
411.500000	22.829009 
412.000000	22.826656 
412.500000	22.830167 
413.000000	22.810645 
413.500000	22.601336 
414.000000	22.255251 
414.500000	21.939741 
415.000000	21.636316 
415.500000	21.396046 
416.000000	21.330236 
416.500000	21.182845 
417.000000	21.080239 
417.500000	21.071287 
418.000000	20.980668 
418.500000	20.782297 
419.000000	20.575269 
419.500000	20.321977 
420.000000	20.048919 
420.500000	19.892861 
421.000000	19.710746 
421.500000	19.554149 
422.000000	19.415450 
422.500000	19.258185 
423.000000	19.070997 
423.500000	18.924935 
424.000000	18.752969 
424.500000	18.549831 
425.000000	18.327600 
425.500000	18.028854 
426.000000	17.741104 
426.500000	17.474792 
427.000000	17.150064 
427.500000	16.815644 
428.000000	16.488739 
428.500000	16.186111 
429.000000	16.007367 
429.500000	15.867670 
430.000000	15.752173 
430.500000	15.687090 
431.000000	15.692979 
431.500000	15.676705 
432.000000	15.659469 
432.500000	15.530006 
433.000000	15.314880 
433.500000	15.111585 
434.000000	14.899424 
434.500000	14.691648 
435.000000	14.545926 
435.500000	14.486338 
436.000000	14.474144 
436.500000	14.572297 
437.000000	14.594599 
437.500000	14.581262 
438.000000	14.503885 
438.500000	14.405506 
439.000000	14.292465 
439.500000	14.187804 
440.000000	14.060421 
440.500000	13.961498 
441.000000	13.985372 
441.500000	14.006031 
442.000000	14.033777 
442.500000	13.997997 
443.000000	13.988106 
443.500000	13.980576 
444.000000	13.994568 
444.500000	13.987994 

