PE FL                   SPECTRUM    ASCII       PEDS        1.60        
  -1
PMEF2D~1
23/10/12
19:20:27.00
23/10/12
19:20:27.00


444.500000
1









LS55
10.00
5.00
5.00
SCAN
1
20
100
500
0
500
0
2
0
1
7
ON
435 365 
1 0 0
#HDR
-1
-1
#GR
NM

0.00002384185791015625
0.0
250.000000
0.500000
390
8
12.444168
-5.000000
#DATA
250.000000	-5.000000 
250.500000	-3.389679 
251.000000	-1.973542 
251.500000	-1.594908 
252.000000	-1.480592 
252.500000	-1.855084 
253.000000	-2.459515 
253.500000	-3.409952 
254.000000	-4.107381 
254.500000	-4.573275 
255.000000	-4.237821 
255.500000	-3.240840 
256.000000	-2.422512 
256.500000	-1.547933 
257.000000	-0.879106 
257.500000	-0.327307 
258.000000	-0.024997 
258.500000	-0.345288 
259.000000	-1.041539 
259.500000	-1.508038 
260.000000	-1.695015 
260.500000	-1.598171 
261.000000	-1.461473 
261.500000	-1.227129 
262.000000	-0.930287 
262.500000	-0.634719 
263.000000	-0.749014 
263.500000	-1.110519 
264.000000	-1.253455 
264.500000	-1.079506 
265.000000	-0.668687 
265.500000	-0.466399 
266.000000	-0.280146 
266.500000	-0.423485 
267.000000	-0.796697 
267.500000	-1.524997 
268.000000	-2.497529 
268.500000	-3.261618 
269.000000	-3.419699 
269.500000	-2.804280 
270.000000	-1.861802 
270.500000	-0.646741 
271.000000	0.308908  
271.500000	1.181375  
272.000000	1.654373  
272.500000	1.388183  
273.000000	0.605338  
273.500000	-0.506110 
274.000000	-1.370825 
274.500000	-2.102799 
275.000000	-2.468853 
275.500000	-2.673263 
276.000000	-2.588599 
276.500000	-2.237286 
277.000000	-1.982564 
277.500000	-1.947217 
278.000000	-2.204159 
278.500000	-2.205833 
279.000000	-2.229021 
279.500000	-2.276307 
280.000000	-2.275538 
280.500000	-2.295817 
281.000000	-2.258488 
281.500000	-2.244193 
282.000000	-2.604237 
282.500000	-3.143821 
283.000000	-3.576151 
283.500000	-3.763703 
284.000000	-3.661239 
284.500000	-3.183484 
285.000000	-2.579826 
285.500000	-1.886100 
286.000000	-1.160073 
286.500000	-0.844524 
287.000000	-0.816307 
287.500000	-1.308432 
288.000000	-2.040692 
288.500000	-2.612749 
289.000000	-3.000740 
289.500000	-3.088841 
290.000000	-3.051019 
290.500000	-2.877482 
291.000000	-2.748223 
291.500000	-2.489749 
292.000000	-2.450212 
292.500000	-2.753149 
293.000000	-3.015631 
293.500000	-3.235993 
294.000000	-3.222524 
294.500000	-2.994931 
295.000000	-2.773055 
295.500000	-2.559657 
296.000000	-2.343975 
296.500000	-2.133533 
297.000000	-2.085663 
297.500000	-2.103333 
298.000000	-2.230926 
298.500000	-2.414070 
299.000000	-2.693126 
299.500000	-2.769823 
300.000000	-2.877808 
300.500000	-3.016184 
301.000000	-3.149493 
301.500000	-3.233113 
302.000000	-3.060888 
302.500000	-2.636331 
303.000000	-2.038189 
303.500000	-1.587730 
304.000000	-0.857640 
304.500000	-0.035058 
305.000000	0.773548  
305.500000	1.325481  
306.000000	1.583174  
306.500000	1.634572  
307.000000	1.570303  
307.500000	1.265396  
308.000000	0.655920  
308.500000	0.273142  
309.000000	0.021568  
309.500000	-0.000117 
310.000000	0.034055  
310.500000	0.226243  
311.000000	0.484263  
311.500000	0.785975  
312.000000	0.710789  
312.500000	0.541691  
313.000000	0.251282  
313.500000	0.015643  
314.000000	-0.097960 
314.500000	-0.206144 
315.000000	-0.100521 
315.500000	0.293694  
316.000000	0.958899  
316.500000	1.470855  
317.000000	2.220203  
317.500000	2.739537  
318.000000	3.234375  
318.500000	3.780005  
319.000000	4.406683  
319.500000	4.684338  
320.000000	4.881903  
320.500000	4.892581  
321.000000	4.858176  
321.500000	5.117019  
322.000000	5.397643  
322.500000	5.790813  
323.000000	6.437153  
323.500000	7.711130  
324.000000	8.867950  
324.500000	9.943206  
325.000000	10.508747 
325.500000	10.659686 
326.000000	10.475216 
326.500000	10.067575 
327.000000	9.366747  
327.500000	8.638519  
328.000000	8.502654  
328.500000	8.824064  
329.000000	9.614734  
329.500000	10.480021 
330.000000	11.319778 
330.500000	11.903203 
331.000000	12.330546 
331.500000	12.444168 
332.000000	12.213166 
332.500000	11.859796 
333.000000	11.454439 
333.500000	11.218934 
334.000000	11.221335 
334.500000	11.177374 
335.000000	11.140438 
335.500000	11.111526 
336.000000	11.138489 
336.500000	11.156850 
337.000000	11.095874 
337.500000	10.905724 
338.000000	10.646852 
338.500000	10.529994 
339.000000	10.311421 
339.500000	10.019960 
340.000000	9.664938  
340.500000	9.209897  
341.000000	8.749904  
341.500000	8.345897  
342.000000	7.931261  
342.500000	7.570214  
343.000000	7.294569  
343.500000	6.963639  
344.000000	6.728977  
344.500000	6.698704  
345.000000	6.588743  
345.500000	6.450708  
346.000000	6.420414  
346.500000	6.502636  
347.000000	6.747100  
347.500000	6.989517  
348.000000	7.094469  
348.500000	7.105156  
349.000000	7.197152  
349.500000	7.254928  
350.000000	7.150918  
350.500000	7.048547  
351.000000	6.959036  
351.500000	6.949896  
352.000000	6.839739  
352.500000	6.708831  
353.000000	6.470437  
353.500000	6.230297  
354.000000	6.059847  
354.500000	5.819678  
355.000000	5.692940  
355.500000	5.756402  
356.000000	5.998841  
356.500000	6.095312  
357.000000	6.308265  
357.500000	6.430277  
358.000000	6.378579  
358.500000	6.253651  
359.000000	5.998522  
359.500000	5.755226  
360.000000	5.682665  
360.500000	5.858507  
361.000000	5.957047  
361.500000	6.256640  
362.000000	6.599156  
362.500000	6.991536  
363.000000	7.285565  
363.500000	7.427839  
364.000000	7.483725  
364.500000	7.438940  
365.000000	7.277006  
365.500000	6.883608  
366.000000	6.498085  
366.500000	6.096214  
367.000000	5.793344  
367.500000	5.609730  
368.000000	5.530236  
368.500000	5.625023  
369.000000	5.903334  
369.500000	6.259511  
370.000000	6.524892  
370.500000	6.723132  
371.000000	6.766329  
371.500000	6.676450  
372.000000	6.546522  
372.500000	6.348493  
373.000000	6.135110  
373.500000	6.046201  
374.000000	6.037161  
374.500000	5.985908  
375.000000	5.952306  
375.500000	5.978144  
376.000000	5.920751  
376.500000	5.877673  
377.000000	5.831765  
377.500000	5.734366  
378.000000	5.720682  
378.500000	5.781945  
379.000000	5.798303  
379.500000	5.808567  
380.000000	5.888926  
380.500000	6.001822  
381.000000	6.116253  
381.500000	6.231856  
382.000000	6.289616  
382.500000	6.335273  
383.000000	6.379202  
383.500000	6.355462  
384.000000	6.261163  
384.500000	6.198564  
385.000000	6.147978  
385.500000	6.130459  
386.000000	6.156146  
386.500000	6.210205  
387.000000	6.295902  
387.500000	6.337252  
388.000000	6.340370  
388.500000	6.266421  
389.000000	6.152557  
389.500000	5.971915  
390.000000	5.764380  
390.500000	5.581149  
391.000000	5.443653  
391.500000	5.441455  
392.000000	5.455461  
392.500000	5.540233  
393.000000	5.634599  
393.500000	5.734357  
394.000000	5.813919  
394.500000	5.870758  
395.000000	5.918677  
395.500000	5.908738  
396.000000	5.949481  
396.500000	5.951167  
397.000000	5.999562  
397.500000	6.096564  
398.000000	6.232124  
398.500000	6.388689  
399.000000	6.558107  
399.500000	6.731593  
400.000000	6.860107  
400.500000	6.992445  
401.000000	7.018894  
401.500000	7.020522  
402.000000	7.003995  
402.500000	7.025307  
403.000000	7.090193  
403.500000	7.214086  
404.000000	7.363068  
404.500000	7.550714  
405.000000	7.797553  
405.500000	8.000283  
406.000000	8.121577  
406.500000	8.187855  
407.000000	8.248734  
407.500000	8.358922  
408.000000	8.495633  
408.500000	8.582413  
409.000000	8.640361  
409.500000	8.693494  
410.000000	8.748678  
410.500000	8.703517  
411.000000	8.571389  
411.500000	8.422859  
412.000000	8.319872  
412.500000	8.281890  
413.000000	8.233395  
413.500000	8.206785  
414.000000	8.186691  
414.500000	8.262155  
415.000000	8.304548  
415.500000	8.289132  
416.000000	8.222900  
416.500000	8.148246  
417.000000	8.095231  
417.500000	7.996917  
418.000000	7.854635  
418.500000	7.705815  
419.000000	7.660804  
419.500000	7.670856  
420.000000	7.649458  
420.500000	7.592082  
421.000000	7.550812  
421.500000	7.528110  
422.000000	7.488127  
422.500000	7.369556  
423.000000	7.290632  
423.500000	7.269563  
424.000000	7.285008  
424.500000	7.311541  
425.000000	7.279454  
425.500000	7.247158  
426.000000	7.170372  
426.500000	7.123349  
427.000000	6.997336  
427.500000	6.946496  
428.000000	6.926023  
428.500000	6.929287  
429.000000	6.960407  
429.500000	6.963410  
430.000000	6.949409  
430.500000	6.848949  
431.000000	6.736620  
431.500000	6.533348  
432.000000	6.372410  
432.500000	6.234783  
433.000000	6.098852  
433.500000	6.008775  
434.000000	5.971516  
434.500000	5.979973  
435.000000	5.997471  
435.500000	6.054384  
436.000000	6.078207  
436.500000	6.086314  
437.000000	6.104307  
437.500000	6.071391  
438.000000	6.024916  
438.500000	5.981982  
439.000000	5.950435  
439.500000	5.927271  
440.000000	5.944862  
440.500000	5.954923  
441.000000	5.923961  
441.500000	5.896706  
442.000000	5.817130  
442.500000	5.707481  
443.000000	5.603717  
443.500000	5.509383  
444.000000	5.439823  
444.500000	5.445883  

