PE FL                   SPECTRUM    ASCII       PEDS        1.60        
  -1
PMEF4D~1
23/10/12
19:21:48.00
23/10/12
19:21:48.00


444.500000
1









LS55
20.00
5.00
5.00
SCAN
1
20
100
500
0
500
0
2
0
1
7
ON
435 365 
1 0 0
#HDR
-1
-1
#GR
NM

0.00002384185791015625
0.0
250.000000
0.500000
390
8
18.802034
-5.122056
#DATA
250.000000	0.000000  
250.500000	-1.537359 
251.000000	-2.810677 
251.500000	-3.950635 
252.000000	-4.700542 
252.500000	-4.972533 
253.000000	-5.122056 
253.500000	-4.541106 
254.000000	-3.541375 
254.500000	-2.440143 
255.000000	-1.300328 
255.500000	-0.209144 
256.000000	0.321628  
256.500000	0.454135  
257.000000	0.102746  
257.500000	-1.059868 
258.000000	-2.104491 
258.500000	-2.809611 
259.000000	-3.239840 
259.500000	-3.316173 
260.000000	-2.951876 
260.500000	-2.702512 
261.000000	-2.332894 
261.500000	-1.984127 
262.000000	-2.373516 
262.500000	-2.748501 
263.000000	-2.873437 
263.500000	-2.839948 
264.000000	-2.557972 
264.500000	-2.185096 
265.000000	-1.921169 
265.500000	-1.585267 
266.000000	-1.279105 
266.500000	-1.491609 
267.000000	-1.856725 
267.500000	-2.219253 
268.000000	-2.592768 
268.500000	-2.769353 
269.000000	-2.828052 
269.500000	-2.950934 
270.000000	-3.012058 
270.500000	-2.855581 
271.000000	-3.031334 
271.500000	-3.223812 
272.000000	-3.565835 
272.500000	-3.770460 
273.000000	-3.643313 
273.500000	-3.354583 
274.000000	-2.844304 
274.500000	-2.162274 
275.000000	-1.239406 
275.500000	-0.453243 
276.000000	0.125785  
276.500000	-0.053433 
277.000000	-0.351088 
277.500000	-0.942661 
278.000000	-1.547082 
278.500000	-1.841399 
279.000000	-1.873107 
279.500000	-1.396785 
280.000000	-0.712576 
280.500000	0.111628  
281.000000	0.459208  
281.500000	0.670958  
282.000000	0.315930  
282.500000	-0.252575 
283.000000	-0.870444 
283.500000	-1.516166 
284.000000	-2.020063 
284.500000	-2.343517 
285.000000	-2.438208 
285.500000	-2.589192 
286.000000	-2.473605 
286.500000	-2.719700 
287.000000	-2.908275 
287.500000	-3.183255 
288.000000	-3.322793 
288.500000	-3.539032 
289.000000	-3.701520 
289.500000	-3.597956 
290.000000	-3.589542 
290.500000	-3.280661 
291.000000	-3.174714 
291.500000	-2.975769 
292.000000	-2.548562 
292.500000	-1.887643 
293.000000	-1.405636 
293.500000	-1.105502 
294.000000	-0.561215 
294.500000	-0.444388 
295.000000	-0.038951 
295.500000	0.031124  
296.000000	-0.080769 
296.500000	-0.147066 
297.000000	-0.219603 
297.500000	-0.366496 
298.000000	-0.656974 
298.500000	-0.861816 
299.000000	-1.382838 
299.500000	-1.584409 
300.000000	-1.676581 
300.500000	-1.693442 
301.000000	-1.215825 
301.500000	-0.573593 
302.000000	0.100633  
302.500000	0.879476  
303.000000	1.612882  
303.500000	1.741129  
304.000000	1.436710  
304.500000	0.859955  
305.000000	0.128868  
305.500000	-0.348161 
306.000000	-0.546682 
306.500000	-0.732641 
307.000000	-0.294848 
307.500000	0.605948  
308.000000	1.518175  
308.500000	2.170831  
309.000000	2.643997  
309.500000	3.001609  
310.000000	3.452898  
310.500000	3.875972  
311.000000	4.018120  
311.500000	4.591217  
312.000000	5.422270  
312.500000	6.308620  
313.000000	7.225703  
313.500000	7.816304  
314.000000	8.508643  
314.500000	9.272888  
315.000000	9.942156  
315.500000	10.375648 
316.000000	11.210019 
316.500000	12.048601 
317.000000	12.915491 
317.500000	14.030116 
318.000000	14.873672 
318.500000	15.746272 
319.000000	16.543025 
319.500000	17.018769 
320.000000	17.257719 
320.500000	17.611006 
321.000000	17.869674 
321.500000	17.938814 
322.000000	18.123015 
322.500000	18.278580 
323.000000	18.641208 
323.500000	18.802034 
324.000000	18.557042 
324.500000	18.364187 
325.000000	18.196707 
325.500000	18.084456 
326.000000	17.965279 
326.500000	17.786223 
327.000000	17.464133 
327.500000	17.568630 
328.000000	17.765532 
328.500000	17.615393 
329.000000	17.566513 
329.500000	17.559813 
330.000000	17.675962 
330.500000	17.866997 
331.000000	17.992613 
331.500000	17.862173 
332.000000	17.965917 
332.500000	18.152933 
333.000000	17.989903 
333.500000	17.702814 
334.000000	17.323208 
334.500000	16.927557 
335.000000	16.412350 
335.500000	15.817852 
336.000000	15.070501 
336.500000	14.378910 
337.000000	13.840669 
337.500000	13.426579 
338.000000	13.074957 
338.500000	12.882324 
339.000000	12.968375 
339.500000	12.954732 
340.000000	12.926547 
340.500000	12.890307 
341.000000	12.748787 
341.500000	12.550730 
342.000000	12.283444 
342.500000	11.966704 
343.000000	11.631468 
343.500000	11.391480 
344.000000	11.054502 
344.500000	10.774591 
345.000000	10.681607 
345.500000	10.655462 
346.000000	10.716134 
346.500000	10.775412 
347.000000	10.907497 
347.500000	11.039297 
348.000000	11.143441 
348.500000	11.056723 
349.000000	10.835724 
349.500000	10.711501 
350.000000	10.610421 
350.500000	10.491332 
351.000000	10.263405 
351.500000	10.081191 
352.000000	9.987720  
352.500000	9.961919  
353.000000	9.895279  
353.500000	9.679647  
354.000000	9.552455  
354.500000	9.622635  
355.000000	9.779755  
355.500000	9.928326  
356.000000	10.009689 
356.500000	9.979146  
357.000000	9.892613  
357.500000	9.688343  
358.000000	9.368178  
358.500000	8.967233  
359.000000	8.679152  
359.500000	8.521429  
360.000000	8.508859  
360.500000	8.635553  
361.000000	8.767713  
361.500000	8.912395  
362.000000	9.082670  
362.500000	9.257234  
363.000000	9.353972  
363.500000	9.401488  
364.000000	9.409817  
364.500000	9.407728  
365.000000	9.453594  
365.500000	9.442092  
366.000000	9.381584  
366.500000	9.378938  
367.000000	9.373280  
367.500000	9.474154  
368.000000	9.656524  
368.500000	9.901274  
369.000000	10.072121 
369.500000	10.238153 
370.000000	10.240832 
370.500000	10.052455 
371.000000	9.712985  
371.500000	9.198887  
372.000000	8.803238  
372.500000	8.446651  
373.000000	8.188064  
373.500000	7.971919  
374.000000	7.905786  
374.500000	7.991896  
375.000000	8.234068  
375.500000	8.607186  
376.000000	8.966639  
376.500000	9.477294  
377.000000	9.982971  
377.500000	10.488022 
378.000000	10.875888 
378.500000	11.027787 
379.000000	10.994750 
379.500000	10.939758 
380.000000	10.900267 
380.500000	10.859808 
381.000000	10.956524 
381.500000	11.078031 
382.000000	11.209061 
382.500000	11.470379 
383.000000	11.686672 
383.500000	11.777443 
384.000000	11.829667 
384.500000	11.947261 
385.000000	12.125378 
385.500000	12.393676 
386.000000	12.572248 
386.500000	12.614129 
387.000000	12.604075 
387.500000	12.572080 
388.000000	12.490996 
388.500000	12.450205 
389.000000	12.406943 
389.500000	12.442707 
390.000000	12.603590 
390.500000	12.802275 
391.000000	12.990354 
391.500000	13.100664 
392.000000	13.182190 
392.500000	13.230634 
393.000000	13.317882 
393.500000	13.395409 
394.000000	13.597635 
394.500000	13.919975 
395.000000	14.173257 
395.500000	14.474458 
396.000000	14.724089 
396.500000	14.913647 
397.000000	14.976304 
397.500000	14.977256 
398.000000	14.879569 
398.500000	14.813332 
399.000000	14.781258 
399.500000	14.634897 
400.000000	14.637142 
400.500000	14.736638 
401.000000	14.907727 
401.500000	15.035289 
402.000000	15.150563 
402.500000	15.250464 
403.000000	15.329456 
403.500000	15.381657 
404.000000	15.183739 
404.500000	15.039819 
405.000000	14.932425 
405.500000	14.889351 
406.000000	14.845540 
406.500000	14.859823 
407.000000	14.997218 
407.500000	15.259911 
408.000000	15.579297 
408.500000	15.739693 
409.000000	15.790891 
409.500000	15.812461 
410.000000	15.780364 
410.500000	15.632234 
411.000000	15.399283 
411.500000	15.158068 
412.000000	14.963634 
412.500000	14.811481 
413.000000	14.659971 
413.500000	14.487922 
414.000000	14.345251 
414.500000	14.198605 
415.000000	14.007526 
415.500000	13.752197 
416.000000	13.467745 
416.500000	13.198917 
417.000000	12.936197 
417.500000	12.691503 
418.000000	12.466226 
418.500000	12.273443 
419.000000	12.144174 
419.500000	12.081109 
420.000000	12.041060 
420.500000	12.037421 
421.000000	12.100722 
421.500000	12.202548 
422.000000	12.261532 
422.500000	12.324674 
423.000000	12.280436 
423.500000	12.167524 
424.000000	12.046330 
424.500000	11.905453 
425.000000	11.678945 
425.500000	11.466001 
426.000000	11.319960 
426.500000	11.226224 
427.000000	11.213388 
427.500000	11.185735 
428.000000	11.122389 
428.500000	11.042355 
429.000000	10.967061 
429.500000	10.773833 
430.000000	10.517407 
430.500000	10.221109 
431.000000	9.950657  
431.500000	9.753611  
432.000000	9.595719  
432.500000	9.514309  
433.000000	9.453845  
433.500000	9.453884  
434.000000	9.476187  
434.500000	9.468456  
435.000000	9.370797  
435.500000	9.282569  
436.000000	9.219592  
436.500000	9.182793  
437.000000	9.213508  
437.500000	9.264310  
438.000000	9.339191  
438.500000	9.463187  
439.000000	9.593813  
439.500000	9.631911  
440.000000	9.602526  
440.500000	9.513526  
441.000000	9.384176  
441.500000	9.200087  
442.000000	8.998812  
442.500000	8.815457  
443.000000	8.716359  
443.500000	8.736820  
444.000000	8.812063  
444.500000	8.939457  

