PE FL                   SPECTRUM    ASCII       PEDS        1.60        
  -1
PMEF9D~1
23/10/12
19:25:10.00
23/10/12
19:25:10.00


444.500000
1









LS55
45.00
5.00
5.00
SCAN
1
20
100
500
0
500
0
2
0
1
7
ON
435 365 
1 0 0
#HDR
-1
-1
#GR
NM

0.00002384185791015625
0.0
250.000000
0.500000
390
8
49.991130
-5.000767
#DATA
250.000000	0.759000  
250.500000	0.642530  
251.000000	0.210993  
251.500000	-0.683656 
252.000000	-1.695139 
252.500000	-2.739017 
253.000000	-3.746914 
253.500000	-4.624245 
254.000000	-5.000767 
254.500000	-4.841251 
255.000000	-4.485599 
255.500000	-3.962280 
256.000000	-3.467275 
256.500000	-3.044324 
257.000000	-2.847969 
257.500000	-2.738546 
258.000000	-2.488328 
258.500000	-2.308231 
259.000000	-2.055578 
259.500000	-1.918702 
260.000000	-1.782027 
260.500000	-1.679335 
261.000000	-1.820927 
261.500000	-1.790571 
262.000000	-1.549851 
262.500000	-0.917294 
263.000000	-0.223425 
263.500000	0.520747  
264.000000	1.306062  
264.500000	2.051071  
265.000000	2.195292  
265.500000	1.634003  
266.000000	0.842517  
266.500000	-0.092972 
267.000000	-0.842045 
267.500000	-1.535893 
268.000000	-2.202881 
268.500000	-2.582727 
269.000000	-2.495744 
269.500000	-2.323264 
270.000000	-2.387252 
270.500000	-2.349281 
271.000000	-2.410912 
271.500000	-2.474912 
272.000000	-2.591910 
272.500000	-2.550479 
273.000000	-2.573276 
273.500000	-2.669101 
274.000000	-2.787156 
274.500000	-2.857679 
275.000000	-2.678396 
275.500000	-2.429706 
276.000000	-2.173934 
276.500000	-2.134528 
277.000000	-1.915728 
277.500000	-2.019883 
278.000000	-2.335250 
278.500000	-2.708098 
279.000000	-3.037688 
279.500000	-3.185550 
280.000000	-2.887860 
280.500000	-2.165896 
281.000000	-1.206012 
281.500000	-0.003215 
282.000000	0.935523  
282.500000	1.667739  
283.000000	1.909335  
283.500000	1.535268  
284.000000	0.499966  
284.500000	-0.702767 
285.000000	-1.997954 
285.500000	-2.972162 
286.000000	-3.418986 
286.500000	-3.666462 
287.000000	-3.349613 
287.500000	-2.754440 
288.000000	-2.251514 
288.500000	-1.968148 
289.000000	-1.632761 
289.500000	-1.611544 
290.000000	-1.767989 
290.500000	-1.830095 
291.000000	-2.000871 
291.500000	-1.886030 
292.000000	-1.457490 
292.500000	-1.100352 
293.000000	-0.874528 
293.500000	-0.436077 
294.000000	-0.167629 
294.500000	-0.107140 
295.000000	0.037246  
295.500000	0.043685  
296.000000	0.185923  
296.500000	0.466225  
297.000000	0.702953  
297.500000	0.738078  
298.000000	0.776473  
298.500000	0.623003  
299.000000	0.523602  
299.500000	0.310541  
300.000000	0.173539  
300.500000	0.362520  
301.000000	0.592037  
301.500000	0.980521  
302.000000	1.696526  
302.500000	2.535760  
303.000000	3.416336  
303.500000	4.841954  
304.000000	6.376528  
304.500000	8.227933  
305.000000	10.534623 
305.500000	13.048582 
306.000000	15.486699 
306.500000	18.048876 
307.000000	20.205337 
307.500000	21.951493 
308.000000	23.618395 
308.500000	24.932341 
309.000000	25.879425 
309.500000	26.728635 
310.000000	27.461799 
310.500000	28.255740 
311.000000	29.257117 
311.500000	29.762799 
312.000000	30.087458 
312.500000	30.469304 
313.000000	31.073359 
313.500000	31.875558 
314.000000	32.600528 
314.500000	32.995032 
315.000000	33.782618 
315.500000	34.950891 
316.000000	35.771783 
316.500000	36.204665 
317.000000	36.859171 
317.500000	37.337324 
318.000000	37.821371 
318.500000	38.149044 
319.000000	37.968478 
319.500000	37.775231 
320.000000	37.889877 
320.500000	37.873891 
321.000000	37.397668 
321.500000	37.445625 
322.000000	37.460251 
322.500000	37.580806 
323.000000	37.842644 
323.500000	37.945368 
324.000000	37.768194 
324.500000	37.557294 
325.000000	37.151181 
325.500000	36.222274 
326.000000	35.774188 
326.500000	35.635556 
327.000000	35.352179 
327.500000	35.200840 
328.000000	35.103857 
328.500000	34.610583 
329.000000	33.819459 
329.500000	32.827649 
330.000000	31.427235 
330.500000	30.037084 
331.000000	29.018073 
331.500000	28.172144 
332.000000	27.704676 
332.500000	27.779118 
333.000000	27.933658 
333.500000	27.833991 
334.000000	27.594837 
334.500000	27.013628 
335.000000	26.214090 
335.500000	25.471266 
336.000000	24.873693 
336.500000	24.445428 
337.000000	24.456080 
337.500000	24.738172 
338.000000	25.058567 
338.500000	25.489439 
339.000000	25.872486 
339.500000	26.059715 
340.000000	25.986908 
340.500000	25.969700 
341.000000	25.878027 
341.500000	25.666337 
342.000000	25.547147 
342.500000	25.336533 
343.000000	25.091331 
343.500000	24.961949 
344.000000	24.730421 
344.500000	24.239366 
345.000000	24.079567 
345.500000	24.291442 
346.000000	24.535599 
346.500000	24.957101 
347.000000	25.305102 
347.500000	25.749776 
348.000000	26.355599 
348.500000	26.784458 
349.000000	26.694740 
349.500000	26.766768 
350.000000	27.001953 
350.500000	27.295108 
351.000000	27.624532 
351.500000	27.833323 
352.000000	28.120924 
352.500000	28.595764 
353.000000	28.945912 
353.500000	28.931659 
354.000000	29.031836 
354.500000	29.150058 
355.000000	29.529158 
355.500000	29.788574 
356.000000	29.928524 
356.500000	30.089476 
357.000000	30.520846 
357.500000	30.971558 
358.000000	31.371056 
358.500000	31.884300 
359.000000	32.353636 
359.500000	32.964857 
360.000000	33.350339 
360.500000	33.514419 
361.000000	33.316738 
361.500000	33.238498 
362.000000	33.192206 
362.500000	33.285211 
363.000000	33.525442 
363.500000	34.051778 
364.000000	34.815104 
364.500000	35.622496 
365.000000	36.434519 
365.500000	36.889217 
366.000000	37.396482 
366.500000	37.915222 
367.000000	38.567091 
367.500000	39.153415 
368.000000	39.975631 
368.500000	40.882606 
369.000000	41.807959 
369.500000	42.793498 
370.000000	43.428787 
370.500000	43.846684 
371.000000	43.993411 
371.500000	43.906554 
372.000000	43.477261 
372.500000	43.206371 
373.000000	43.031450 
373.500000	42.945288 
374.000000	42.972813 
374.500000	43.058553 
375.000000	43.246468 
375.500000	43.737576 
376.000000	44.560144 
376.500000	45.418850 
377.000000	46.434612 
377.500000	47.708536 
378.000000	48.889406 
378.500000	49.677756 
379.000000	49.991130 
379.500000	49.784642 
380.000000	49.175105 
380.500000	48.570882 
381.000000	47.936865 
381.500000	47.359847 
382.000000	47.136203 
382.500000	47.126766 
383.000000	47.298410 
383.500000	47.585142 
384.000000	47.762332 
384.500000	47.631326 
385.000000	47.475899 
385.500000	47.421767 
386.000000	47.378235 
386.500000	47.367480 
387.000000	47.122148 
387.500000	46.837116 
388.000000	46.568946 
388.500000	46.359897 
389.000000	46.153873 
389.500000	46.052191 
390.000000	45.971235 
390.500000	45.934880 
391.000000	46.020843 
391.500000	45.975616 
392.000000	45.922990 
392.500000	45.711671 
393.000000	45.316493 
393.500000	44.918023 
394.000000	44.745907 
394.500000	44.564648 
395.000000	44.238548 
395.500000	44.061871 
396.000000	43.914953 
396.500000	43.881372 
397.000000	43.778351 
397.500000	43.463530 
398.000000	43.064230 
398.500000	42.786313 
399.000000	42.422177 
399.500000	41.921153 
400.000000	41.536127 
400.500000	41.220641 
401.000000	41.077188 
401.500000	41.002484 
402.000000	40.922858 
402.500000	40.892299 
403.000000	40.945822 
403.500000	40.958830 
404.000000	40.927128 
404.500000	40.927371 
405.000000	40.984559 
405.500000	41.006283 
406.000000	40.980878 
406.500000	40.907029 
407.000000	40.820120 
407.500000	40.677092 
408.000000	40.425269 
408.500000	40.154808 
409.000000	39.850410 
409.500000	39.577156 
410.000000	39.209603 
410.500000	38.736536 
411.000000	38.176493 
411.500000	37.616670 
412.000000	37.164514 
412.500000	36.712183 
413.000000	36.304050 
413.500000	35.969701 
414.000000	35.748770 
414.500000	35.666900 
415.000000	35.644613 
415.500000	35.508023 
416.000000	35.306884 
416.500000	35.211652 
417.000000	34.996207 
417.500000	34.665610 
418.000000	34.264495 
418.500000	33.725191 
419.000000	33.208969 
419.500000	32.820484 
420.000000	32.472769 
420.500000	32.143488 
421.000000	31.972407 
421.500000	31.827713 
422.000000	31.657356 
422.500000	31.451436 
423.000000	31.134848 
423.500000	30.632248 
424.000000	30.093073 
424.500000	29.553167 
425.000000	29.093001 
425.500000	28.770979 
426.000000	28.527013 
426.500000	28.312653 
427.000000	28.139195 
427.500000	28.114444 
428.000000	28.079943 
428.500000	27.976749 
429.000000	27.786393 
429.500000	27.492691 
430.000000	27.164574 
430.500000	26.793268 
431.000000	26.325571 
431.500000	25.773832 
432.000000	25.237961 
432.500000	24.873293 
433.000000	24.679464 
433.500000	24.586731 
434.000000	24.489552 
434.500000	24.441543 
435.000000	24.496215 
435.500000	24.531073 
436.000000	24.498241 
436.500000	24.288094 
437.000000	24.018696 
437.500000	23.793792 
438.000000	23.588850 
438.500000	23.293900 
439.000000	22.874967 
439.500000	22.599791 
440.000000	22.418488 
440.500000	22.352796 
441.000000	22.305330 
441.500000	22.250708 
442.000000	22.262542 
442.500000	22.363857 
443.000000	22.428426 
443.500000	22.284649 
444.000000	22.168509 
444.500000	22.022762 

