PE FL                   SPECTRUM    ASCII       PEDS        1.60        
  -1
PMEF7D~1
23/10/12
19:23:49.00
23/10/12
19:23:49.00


444.500000
1









LS55
35.00
5.00
5.00
SCAN
1
20
100
500
0
500
0
2
0
1
7
ON
435 365 
1 0 0
#HDR
-1
-1
#GR
NM

0.00002384185791015625
0.0
250.000000
0.500000
390
8
39.155243
-4.297000
#DATA
250.000000	-4.297000 
250.500000	-3.797694 
251.000000	-3.572360 
251.500000	-3.109766 
252.000000	-2.682950 
252.500000	-2.542381 
253.000000	-2.449094 
253.500000	-2.618589 
254.000000	-3.132356 
254.500000	-3.443239 
255.000000	-3.527406 
255.500000	-3.739304 
256.000000	-3.831376 
256.500000	-3.625703 
257.000000	-3.214691 
257.500000	-2.675016 
258.000000	-2.351689 
258.500000	-2.361607 
259.000000	-2.281471 
259.500000	-2.098114 
260.000000	-2.077468 
260.500000	-2.255957 
261.000000	-2.471390 
261.500000	-2.670762 
262.000000	-2.725945 
262.500000	-2.930839 
263.000000	-3.456500 
263.500000	-3.964456 
264.000000	-4.038493 
264.500000	-3.681366 
265.000000	-3.188022 
265.500000	-2.455296 
266.000000	-1.801701 
266.500000	-1.239018 
267.000000	-0.497573 
267.500000	-0.249986 
268.000000	-0.476929 
268.500000	-1.145320 
269.000000	-1.736645 
269.500000	-2.063233 
270.000000	-2.069126 
270.500000	-1.776171 
271.000000	-1.458373 
271.500000	-0.767647 
272.000000	-0.348058 
272.500000	-0.015527 
273.000000	-0.122321 
273.500000	-0.404839 
274.000000	-0.719579 
274.500000	-1.247381 
275.000000	-1.451509 
275.500000	-1.692053 
276.000000	-1.668816 
276.500000	-1.876717 
277.000000	-1.876264 
277.500000	-1.911381 
278.000000	-1.841686 
278.500000	-1.687676 
279.000000	-1.721258 
279.500000	-1.679533 
280.000000	-1.646079 
280.500000	-1.616038 
281.000000	-1.810591 
281.500000	-1.968546 
282.000000	-2.216463 
282.500000	-2.285086 
283.000000	-2.337067 
283.500000	-2.131026 
284.000000	-1.741473 
284.500000	-1.181864 
285.000000	-0.814774 
285.500000	-0.595696 
286.000000	-0.399228 
286.500000	-0.388483 
287.000000	-0.749075 
287.500000	-1.527336 
288.000000	-2.164348 
288.500000	-2.649551 
289.000000	-2.776685 
289.500000	-2.627639 
290.000000	-2.166285 
290.500000	-1.478564 
291.000000	-0.526273 
291.500000	0.084979  
292.000000	0.185265  
292.500000	0.040652  
293.000000	-0.261599 
293.500000	-0.782782 
294.000000	-1.475267 
294.500000	-1.899574 
295.000000	-2.258543 
295.500000	-2.401309 
296.000000	-2.688408 
296.500000	-2.899136 
297.000000	-3.036237 
297.500000	-2.637939 
298.000000	-2.005193 
298.500000	-1.290106 
299.000000	-0.164663 
299.500000	1.271805  
300.000000	2.543315  
300.500000	3.366465  
301.000000	3.779576  
301.500000	3.557796  
302.000000	3.289920  
302.500000	2.927182  
303.000000	2.343369  
303.500000	2.025720  
304.000000	2.482902  
304.500000	3.539511  
305.000000	5.228967  
305.500000	7.249259  
306.000000	9.278222  
306.500000	11.439065 
307.000000	13.493365 
307.500000	15.138436 
308.000000	16.403431 
308.500000	17.600407 
309.000000	18.490217 
309.500000	19.664268 
310.000000	20.772420 
310.500000	21.884304 
311.000000	22.773843 
311.500000	23.469531 
312.000000	23.779320 
312.500000	23.719265 
313.000000	23.710191 
313.500000	23.498824 
314.000000	23.683663 
314.500000	24.201042 
315.000000	25.266767 
315.500000	26.691438 
316.000000	28.415737 
316.500000	30.112013 
317.000000	31.109996 
317.500000	32.096039 
318.000000	32.824637 
318.500000	33.689643 
319.000000	34.431298 
319.500000	35.491091 
320.000000	36.405770 
320.500000	37.613386 
321.000000	38.716794 
321.500000	39.155243 
322.000000	38.828117 
322.500000	37.956878 
323.000000	37.015395 
323.500000	35.841226 
324.000000	35.153809 
324.500000	34.529269 
325.000000	34.497127 
325.500000	34.632255 
326.000000	34.901687 
326.500000	34.888847 
327.000000	34.298206 
327.500000	33.432834 
328.000000	32.174892 
328.500000	31.034599 
329.000000	29.932566 
329.500000	29.509136 
330.000000	28.920769 
330.500000	28.535058 
331.000000	28.156832 
331.500000	27.415822 
332.000000	26.451210 
332.500000	25.454579 
333.000000	24.076706 
333.500000	22.732021 
334.000000	22.125081 
334.500000	21.522917 
335.000000	21.260162 
335.500000	21.224323 
336.000000	20.872808 
336.500000	20.397320 
337.000000	20.113020 
337.500000	19.517210 
338.000000	18.729206 
338.500000	18.264403 
339.000000	17.566959 
339.500000	17.292647 
340.000000	17.156239 
340.500000	16.848172 
341.000000	16.343062 
341.500000	15.985006 
342.000000	15.571561 
342.500000	15.366160 
343.000000	15.524531 
343.500000	15.508510 
344.000000	15.693956 
344.500000	16.121172 
345.000000	16.550678 
345.500000	16.915799 
346.000000	17.290152 
346.500000	17.334166 
347.000000	17.434054 
347.500000	17.530671 
348.000000	17.412717 
348.500000	17.158377 
349.000000	16.898248 
349.500000	16.755948 
350.000000	16.728087 
350.500000	16.937950 
351.000000	17.092486 
351.500000	17.422815 
352.000000	17.922299 
352.500000	18.407984 
353.000000	18.795035 
353.500000	19.051808 
354.000000	19.114040 
354.500000	19.041346 
355.000000	18.828626 
355.500000	18.625873 
356.000000	18.600411 
356.500000	18.823532 
357.000000	19.164557 
357.500000	19.654215 
358.000000	20.263887 
358.500000	20.781841 
359.000000	21.192743 
359.500000	21.161514 
360.000000	20.928575 
360.500000	20.560500 
361.000000	20.193842 
361.500000	19.908702 
362.000000	19.872657 
362.500000	20.151964 
363.000000	20.705287 
363.500000	21.496642 
364.000000	22.181251 
364.500000	22.807046 
365.000000	23.290140 
365.500000	23.662514 
366.000000	23.824961 
366.500000	23.885449 
367.000000	23.841385 
367.500000	23.743630 
368.000000	23.644078 
368.500000	23.366966 
369.000000	23.270219 
369.500000	23.245262 
370.000000	23.392983 
370.500000	23.581009 
371.000000	23.934148 
371.500000	24.409026 
372.000000	24.825267 
372.500000	25.268603 
373.000000	25.573081 
373.500000	26.075826 
374.000000	26.475867 
374.500000	26.932432 
375.000000	27.278134 
375.500000	27.580663 
376.000000	27.905958 
376.500000	27.956922 
377.000000	27.826795 
377.500000	27.634553 
378.000000	27.517576 
378.500000	27.424809 
379.000000	27.548087 
379.500000	27.633029 
380.000000	27.930406 
380.500000	28.357394 
381.000000	28.706489 
381.500000	28.809744 
382.000000	28.925340 
382.500000	29.029377 
383.000000	29.054737 
383.500000	29.214701 
384.000000	29.306001 
384.500000	29.597051 
385.000000	30.021049 
385.500000	30.486238 
386.000000	30.810686 
386.500000	31.162269 
387.000000	31.490817 
387.500000	31.576381 
388.000000	31.584221 
388.500000	31.361226 
389.000000	31.172463 
389.500000	31.109872 
390.000000	31.011378 
390.500000	30.983837 
391.000000	31.006565 
391.500000	31.258167 
392.000000	31.493327 
392.500000	31.748748 
393.000000	31.780876 
393.500000	31.712565 
394.000000	31.581949 
394.500000	31.338562 
395.000000	31.025380 
395.500000	30.693118 
396.000000	30.448206 
396.500000	30.232107 
397.000000	30.259260 
397.500000	30.217111 
398.000000	30.226534 
398.500000	30.255816 
399.000000	30.431778 
399.500000	30.717877 
400.000000	30.936856 
400.500000	31.066189 
401.000000	31.082629 
401.500000	31.119697 
402.000000	30.974577 
402.500000	30.810209 
403.000000	30.458739 
403.500000	30.203081 
404.000000	30.060265 
404.500000	30.012668 
405.000000	29.942131 
405.500000	29.878547 
406.000000	29.846329 
406.500000	29.640107 
407.000000	29.469709 
407.500000	29.174525 
408.000000	28.819715 
408.500000	28.524208 
409.000000	28.342757 
409.500000	28.126964 
410.000000	27.964457 
410.500000	27.819243 
411.000000	27.677206 
411.500000	27.688523 
412.000000	27.735452 
412.500000	27.737865 
413.000000	27.645969 
413.500000	27.572767 
414.000000	27.479958 
414.500000	27.304331 
415.000000	27.069191 
415.500000	26.843261 
416.000000	26.699751 
416.500000	26.620090 
417.000000	26.415746 
417.500000	26.187771 
418.000000	25.883737 
418.500000	25.546319 
419.000000	25.085530 
419.500000	24.600495 
420.000000	24.079131 
420.500000	23.603605 
421.000000	23.245020 
421.500000	22.822607 
422.000000	22.481906 
422.500000	22.148451 
423.000000	21.882979 
423.500000	21.551828 
424.000000	21.371200 
424.500000	21.152838 
425.000000	20.961440 
425.500000	20.805088 
426.000000	20.570659 
426.500000	20.352553 
427.000000	20.124334 
427.500000	19.875409 
428.000000	19.566659 
428.500000	19.431653 
429.000000	19.342225 
429.500000	19.330331 
430.000000	19.275623 
430.500000	19.250947 
431.000000	19.235202 
431.500000	19.151882 
432.000000	18.930415 
432.500000	18.567511 
433.000000	18.234963 
433.500000	17.938129 
434.000000	17.781598 
434.500000	17.608599 
435.000000	17.527157 
435.500000	17.555380 
436.000000	17.689079 
436.500000	17.777076 
437.000000	17.790035 
437.500000	17.719749 
438.000000	17.555787 
438.500000	17.447762 
439.000000	17.303447 
439.500000	17.097617 
440.000000	16.986848 
440.500000	16.981416 
441.000000	17.024054 
441.500000	17.082291 
442.000000	17.145705 
442.500000	17.135089 
443.000000	17.130444 
443.500000	17.121424 
444.000000	16.967607 
444.500000	16.793186 

