PE FL                   SPECTRUM    ASCII       PEDS        1.60        
  -1
PMEF3D~1
23/10/12
19:21:07.00
23/10/12
19:21:07.00


444.500000
1









LS55
15.00
5.00
5.00
SCAN
1
20
100
500
0
500
0
2
0
1
7
ON
435 365 
1 0 0
#HDR
-1
-1
#GR
NM

0.00002384185791015625
0.0
250.000000
0.500000
390
8
16.091892
-4.273713
#DATA
250.000000	-1.472000 
250.500000	-2.364673 
251.000000	-3.151957 
251.500000	-3.926559 
252.000000	-4.273713 
252.500000	-4.242599 
253.000000	-3.897010 
253.500000	-3.351472 
254.000000	-2.580988 
254.500000	-2.128503 
255.000000	-1.868490 
255.500000	-1.778172 
256.000000	-2.052874 
256.500000	-2.375280 
257.000000	-2.734565 
257.500000	-2.913188 
258.000000	-3.025482 
258.500000	-2.872890 
259.000000	-2.694598 
259.500000	-2.618997 
260.000000	-2.418714 
260.500000	-2.317141 
261.000000	-2.139315 
261.500000	-2.101161 
262.000000	-1.940095 
262.500000	-1.920587 
263.000000	-1.903880 
263.500000	-2.056981 
264.000000	-2.551912 
264.500000	-2.939706 
265.000000	-3.519724 
265.500000	-3.858314 
266.000000	-3.997994 
266.500000	-3.787218 
267.000000	-3.430447 
267.500000	-2.949090 
268.000000	-2.563051 
268.500000	-2.332652 
269.000000	-2.239294 
269.500000	-2.483859 
270.000000	-2.717840 
270.500000	-2.888336 
271.000000	-3.211409 
271.500000	-3.228043 
272.000000	-3.008695 
272.500000	-2.656448 
273.000000	-2.333011 
273.500000	-2.253092 
274.000000	-2.187894 
274.500000	-2.080006 
275.000000	-1.554199 
275.500000	-1.094565 
276.000000	-0.406881 
276.500000	0.086218  
277.000000	0.980781  
277.500000	1.709915  
278.000000	1.725501  
278.500000	1.582522  
279.000000	1.382116  
279.500000	1.317678  
280.000000	1.225049  
280.500000	1.392441  
281.000000	1.146670  
281.500000	1.135808  
282.000000	0.997173  
282.500000	0.606041  
283.000000	0.100675  
283.500000	-0.354704 
284.000000	-0.707606 
284.500000	-0.739719 
285.000000	-0.268468 
285.500000	0.035155  
286.000000	0.333466  
286.500000	0.291687  
287.000000	-0.003655 
287.500000	-0.432844 
288.000000	-0.918537 
288.500000	-1.352311 
289.000000	-1.681499 
289.500000	-1.722287 
290.000000	-1.608965 
290.500000	-1.560666 
291.000000	-1.803013 
291.500000	-2.011227 
292.000000	-2.025049 
292.500000	-2.160488 
293.000000	-2.231927 
293.500000	-2.226226 
294.000000	-2.322222 
294.500000	-2.265260 
295.000000	-2.406763 
295.500000	-2.696591 
296.000000	-3.065425 
296.500000	-3.284783 
297.000000	-3.320669 
297.500000	-3.091561 
298.000000	-2.616489 
298.500000	-2.454654 
299.000000	-2.265024 
299.500000	-2.314926 
300.000000	-2.372992 
300.500000	-2.528030 
301.000000	-2.639758 
301.500000	-2.549301 
302.000000	-2.234017 
302.500000	-1.565527 
303.000000	-1.254354 
303.500000	-1.044393 
304.000000	-0.934781 
304.500000	-0.850540 
305.000000	-0.786788 
305.500000	-0.513500 
306.000000	-0.270215 
306.500000	0.090188  
307.000000	0.879172  
307.500000	1.296378  
308.000000	1.525530  
308.500000	1.725658  
309.000000	1.772664  
309.500000	1.566569  
310.000000	1.710493  
310.500000	1.818135  
311.000000	1.987718  
311.500000	2.637576  
312.000000	3.076062  
312.500000	3.480315  
313.000000	4.101120  
313.500000	4.762518  
314.000000	5.216223  
314.500000	5.909452  
315.000000	6.290022  
315.500000	6.450081  
316.000000	6.755938  
316.500000	6.838398  
317.000000	6.911378  
317.500000	6.816388  
318.000000	6.868909  
318.500000	6.807417  
319.000000	6.993264  
319.500000	7.322255  
320.000000	7.590786  
320.500000	7.977052  
321.000000	8.401388  
321.500000	9.161513  
322.000000	9.831598  
322.500000	10.658528 
323.000000	11.462531 
323.500000	12.347972 
324.000000	13.254971 
324.500000	13.924096 
325.000000	14.464574 
325.500000	14.779528 
326.000000	15.267511 
326.500000	15.577490 
327.000000	15.889885 
327.500000	16.064932 
328.000000	16.091892 
328.500000	16.081858 
329.000000	15.888203 
329.500000	15.612567 
330.000000	15.208017 
330.500000	14.824409 
331.000000	14.545902 
331.500000	14.449278 
332.000000	14.279855 
332.500000	14.238918 
333.000000	14.200397 
333.500000	14.160213 
334.000000	14.166202 
334.500000	13.895373 
335.000000	13.361614 
335.500000	12.902213 
336.000000	12.661675 
336.500000	12.317118 
337.000000	12.035120 
337.500000	11.761852 
338.000000	11.601129 
338.500000	11.699209 
339.000000	11.688910 
339.500000	11.499382 
340.000000	11.216590 
340.500000	10.976195 
341.000000	10.643139 
341.500000	10.295236 
342.000000	9.912311  
342.500000	9.540865  
343.000000	9.364984  
343.500000	9.214245  
344.000000	9.060654  
344.500000	8.962324  
345.000000	8.820054  
345.500000	8.767514  
346.000000	8.804723  
346.500000	8.940262  
347.000000	9.088594  
347.500000	9.307056  
348.000000	9.498885  
348.500000	9.569628  
349.000000	9.614605  
349.500000	9.503265  
350.000000	9.378506  
350.500000	9.167840  
351.000000	8.957315  
351.500000	8.729478  
352.000000	8.608456  
352.500000	8.528262  
353.000000	8.387694  
353.500000	8.295661  
354.000000	8.226831  
354.500000	8.281105  
355.000000	8.400176  
355.500000	8.527305  
356.000000	8.710668  
356.500000	8.942748  
357.000000	9.239342  
357.500000	9.367017  
358.000000	9.378398  
358.500000	9.295072  
359.000000	9.135313  
359.500000	8.926763  
360.000000	8.656479  
360.500000	8.412970  
361.000000	8.164011  
361.500000	8.069354  
362.000000	8.060147  
362.500000	8.074123  
363.000000	8.065127  
363.500000	7.943492  
364.000000	7.806845  
364.500000	7.725520  
365.000000	7.596079  
365.500000	7.398051  
366.000000	7.278021  
366.500000	7.329937  
367.000000	7.411138  
367.500000	7.534081  
368.000000	7.587907  
368.500000	7.632755  
369.000000	7.765557  
369.500000	7.777032  
370.000000	7.715505  
370.500000	7.567677  
371.000000	7.522808  
371.500000	7.433691  
372.000000	7.355189  
372.500000	7.286393  
373.000000	7.235923  
373.500000	7.271524  
374.000000	7.267068  
374.500000	7.291537  
375.000000	7.403042  
375.500000	7.574992  
376.000000	7.721162  
376.500000	7.862967  
377.000000	8.038871  
377.500000	8.200514  
378.000000	8.275090  
378.500000	8.213741  
379.000000	8.000026  
379.500000	7.746267  
380.000000	7.508649  
380.500000	7.288237  
381.000000	7.083778  
381.500000	6.987809  
382.000000	7.041937  
382.500000	7.142441  
383.000000	7.248493  
383.500000	7.276885  
384.000000	7.285696  
384.500000	7.344697  
385.000000	7.401917  
385.500000	7.408737  
386.000000	7.339341  
386.500000	7.363185  
387.000000	7.408336  
387.500000	7.503165  
388.000000	7.588552  
388.500000	7.668625  
389.000000	7.873207  
389.500000	8.142119  
390.000000	8.434466  
390.500000	8.630264  
391.000000	8.864795  
391.500000	9.072350  
392.000000	9.256734  
392.500000	9.354668  
393.000000	9.404941  
393.500000	9.457069  
394.000000	9.446036  
394.500000	9.418920  
395.000000	9.258398  
395.500000	9.097912  
396.000000	8.973788  
396.500000	8.933686  
397.000000	9.010313  
397.500000	9.204369  
398.000000	9.538482  
398.500000	9.900524  
399.000000	10.282826 
399.500000	10.530362 
400.000000	10.677012 
400.500000	10.691512 
401.000000	10.615323 
401.500000	10.488396 
402.000000	10.315709 
402.500000	10.223265 
403.000000	10.180593 
403.500000	10.236584 
404.000000	10.321222 
404.500000	10.520143 
405.000000	10.728161 
405.500000	10.965789 
406.000000	11.168304 
406.500000	11.276879 
407.000000	11.356006 
407.500000	11.385842 
408.000000	11.373080 
408.500000	11.357196 
409.000000	11.443961 
409.500000	11.549924 
410.000000	11.799335 
410.500000	12.048204 
411.000000	12.251935 
411.500000	12.369686 
412.000000	12.341580 
412.500000	12.182706 
413.000000	11.854081 
413.500000	11.511859 
414.000000	11.129539 
414.500000	10.816557 
415.000000	10.576902 
415.500000	10.448033 
416.000000	10.398349 
416.500000	10.383768 
417.000000	10.435456 
417.500000	10.406946 
418.000000	10.351900 
418.500000	10.227253 
419.000000	10.047099 
419.500000	9.855355  
420.000000	9.644441  
420.500000	9.476978  
421.000000	9.363153  
421.500000	9.359828  
422.000000	9.373977  
422.500000	9.410186  
423.000000	9.412496  
423.500000	9.334790  
424.000000	9.194907  
424.500000	8.960653  
425.000000	8.692159  
425.500000	8.394484  
426.000000	8.142957  
426.500000	8.021996  
427.000000	8.021675  
427.500000	8.072915  
428.000000	8.149683  
428.500000	8.229213  
429.000000	8.221226  
429.500000	8.149402  
430.000000	8.026661  
430.500000	7.860221  
431.000000	7.713702  
431.500000	7.618965  
432.000000	7.588808  
432.500000	7.593771  
433.000000	7.644652  
433.500000	7.669830  
434.000000	7.639527  
434.500000	7.564036  
435.000000	7.485042  
435.500000	7.410314  
436.000000	7.309988  
436.500000	7.217493  
437.000000	7.177402  
437.500000	7.207181  
438.000000	7.250044  
438.500000	7.252900  
439.000000	7.233770  
439.500000	7.230040  
440.000000	7.232160  
440.500000	7.192570  
441.000000	7.100447  
441.500000	7.011675  
442.000000	6.924291  
442.500000	6.832494  
443.000000	6.703055  
443.500000	6.566758  
444.000000	6.481910  
444.500000	6.457994  

