PE FL                   SPECTRUM    ASCII       PEDS        1.60        
  -1
PMFF05~1
23/10/12
19:25:50.00
23/10/12
19:25:50.00


444.500000
1









LS55
50.00
5.00
5.00
SCAN
1
20
100
500
0
500
0
2
0
1
7
ON
435 365 
1 0 0
#HDR
-1
-1
#GR
NM

0.00002384185791015625
0.0
250.000000
0.500000
390
8
53.826049
-4.881853
#DATA
250.000000	-2.962000 
250.500000	-2.286183 
251.000000	-1.670400 
251.500000	-1.555975 
252.000000	-1.960564 
252.500000	-2.690608 
253.000000	-3.442357 
253.500000	-4.106995 
254.000000	-4.508232 
254.500000	-4.629778 
255.000000	-4.881853 
255.500000	-4.397826 
256.000000	-3.550716 
256.500000	-2.690368 
257.000000	-1.805058 
257.500000	-0.984032 
258.000000	-0.193067 
258.500000	0.256933  
259.000000	0.536171  
259.500000	-0.321683 
260.000000	-1.282915 
260.500000	-2.373038 
261.000000	-3.259311 
261.500000	-3.816803 
262.000000	-4.262311 
262.500000	-4.223842 
263.000000	-3.760850 
263.500000	-2.759427 
264.000000	-2.299222 
264.500000	-1.886502 
265.000000	-2.095157 
265.500000	-2.366679 
266.000000	-2.565371 
266.500000	-3.137347 
267.000000	-3.567603 
267.500000	-3.493383 
268.000000	-3.071223 
268.500000	-2.339379 
269.000000	-1.209271 
269.500000	-0.432055 
270.000000	0.220464  
270.500000	0.758663  
271.000000	0.416615  
271.500000	-0.410130 
272.000000	-1.048260 
272.500000	-1.622395 
273.000000	-2.143928 
273.500000	-1.996919 
274.000000	-1.438892 
274.500000	-0.518296 
275.000000	0.642117  
275.500000	1.234326  
276.000000	1.162336  
276.500000	0.933080  
277.000000	0.485405  
277.500000	-0.612018 
278.000000	-1.590049 
278.500000	-2.483877 
279.000000	-3.012120 
279.500000	-3.180167 
280.000000	-3.153559 
280.500000	-3.096216 
281.000000	-2.862804 
281.500000	-2.379814 
282.000000	-2.382102 
282.500000	-2.170321 
283.000000	-1.950550 
283.500000	-1.734174 
284.000000	-1.813927 
284.500000	-2.005472 
285.000000	-2.215007 
285.500000	-2.351303 
286.000000	-2.392950 
286.500000	-2.699935 
287.000000	-2.681244 
287.500000	-2.425182 
288.000000	-1.920651 
288.500000	-1.590577 
289.000000	-1.465651 
289.500000	-1.481158 
290.000000	-1.511964 
290.500000	-1.574883 
291.000000	-1.850253 
291.500000	-1.821779 
292.000000	-1.498912 
292.500000	-0.951998 
293.000000	-0.301875 
293.500000	0.501185  
294.000000	1.143121  
294.500000	1.667593  
295.000000	1.672394  
295.500000	1.176136  
296.000000	0.770205  
296.500000	0.318183  
297.000000	-0.232252 
297.500000	-0.730674 
298.000000	-0.676576 
298.500000	-0.218691 
299.000000	0.626989  
299.500000	1.855956  
300.000000	2.901383  
300.500000	4.321339  
301.000000	5.807025  
301.500000	7.093459  
302.000000	8.112420  
302.500000	9.043599  
303.000000	9.780178  
303.500000	10.405623 
304.000000	11.367439 
304.500000	12.352941 
305.000000	13.625522 
305.500000	15.105740 
306.000000	16.731132 
306.500000	18.549739 
307.000000	20.535990 
307.500000	22.111814 
308.000000	23.469990 
308.500000	24.773243 
309.000000	25.793767 
309.500000	26.357319 
310.000000	26.845138 
310.500000	27.083199 
311.000000	27.622775 
311.500000	28.685921 
312.000000	29.628728 
312.500000	30.588792 
313.000000	31.473120 
313.500000	32.461779 
314.000000	32.845087 
314.500000	33.444045 
315.000000	34.135573 
315.500000	34.939038 
316.000000	36.275147 
316.500000	37.680526 
317.000000	38.938936 
317.500000	40.271191 
318.000000	41.520353 
318.500000	41.983938 
319.000000	42.117033 
319.500000	42.194368 
320.000000	41.783594 
320.500000	41.461787 
321.000000	41.143158 
321.500000	40.627820 
322.000000	40.121756 
322.500000	39.630984 
323.000000	38.756485 
323.500000	37.560490 
324.000000	36.811037 
324.500000	35.930652 
325.000000	35.525714 
325.500000	35.227576 
326.000000	35.077722 
326.500000	35.136565 
327.000000	35.295412 
327.500000	35.204400 
328.000000	34.820855 
328.500000	34.370965 
329.000000	33.379628 
329.500000	32.174090 
330.000000	30.844518 
330.500000	29.695314 
331.000000	28.868132 
331.500000	28.665515 
332.000000	28.403461 
332.500000	28.332630 
333.000000	28.661615 
333.500000	29.196943 
334.000000	29.617447 
334.500000	29.765383 
335.000000	29.546475 
335.500000	29.485606 
336.000000	29.558549 
336.500000	29.296838 
337.000000	29.107592 
337.500000	29.061638 
338.000000	29.376836 
338.500000	29.786420 
339.000000	30.054846 
339.500000	29.737887 
340.000000	29.579855 
340.500000	29.410318 
341.000000	29.114451 
341.500000	28.966661 
342.000000	28.947320 
342.500000	29.186857 
343.000000	29.617393 
343.500000	30.120991 
344.000000	30.207357 
344.500000	30.401192 
345.000000	30.278875 
345.500000	30.193371 
346.000000	30.340980 
346.500000	30.619859 
347.000000	31.138383 
347.500000	31.620870 
348.000000	32.071382 
348.500000	32.199762 
349.000000	32.364910 
349.500000	32.228680 
350.000000	32.202127 
350.500000	32.238182 
351.000000	32.373728 
351.500000	32.675845 
352.000000	33.032698 
352.500000	33.418233 
353.000000	33.525494 
353.500000	33.673299 
354.000000	33.855886 
354.500000	34.264506 
355.000000	34.825842 
355.500000	35.230495 
356.000000	35.715137 
356.500000	36.322501 
357.000000	36.886208 
357.500000	37.118131 
358.000000	37.212718 
358.500000	37.611048 
359.000000	38.359976 
359.500000	39.539596 
360.000000	40.550070 
360.500000	41.402038 
361.000000	42.304663 
361.500000	43.022947 
362.000000	43.229771 
362.500000	43.049741 
363.000000	42.978808 
363.500000	43.035137 
364.000000	43.755093 
364.500000	44.437025 
365.000000	45.105472 
365.500000	45.834233 
366.000000	46.514312 
366.500000	46.730955 
367.000000	46.637338 
367.500000	46.580420 
368.000000	46.640216 
368.500000	47.244261 
369.000000	48.107044 
369.500000	49.217337 
370.000000	50.185871 
370.500000	51.146674 
371.000000	51.761782 
371.500000	51.902908 
372.000000	51.849908 
372.500000	51.847710 
373.000000	51.789887 
373.500000	51.840638 
374.000000	52.287895 
374.500000	52.641425 
375.000000	53.004139 
375.500000	53.405258 
376.000000	53.605514 
376.500000	53.661523 
377.000000	53.826049 
377.500000	53.747784 
378.000000	53.539902 
378.500000	53.645967 
379.000000	53.742895 
379.500000	53.659821 
380.000000	53.583947 
380.500000	53.446157 
381.000000	53.500928 
381.500000	53.702059 
382.000000	53.763410 
382.500000	53.572686 
383.000000	53.560371 
383.500000	53.661545 
384.000000	53.508583 
384.500000	53.244011 
385.000000	53.018151 
385.500000	52.975322 
386.000000	52.942787 
386.500000	52.794923 
387.000000	52.441002 
387.500000	52.161039 
388.000000	52.106214 
388.500000	51.947072 
389.000000	51.752309 
389.500000	51.644721 
390.000000	51.679881 
390.500000	51.813147 
391.000000	51.775465 
391.500000	51.600781 
392.000000	51.480522 
392.500000	51.298543 
393.000000	50.986966 
393.500000	50.608214 
394.000000	50.378473 
394.500000	50.275569 
395.000000	50.335860 
395.500000	50.318968 
396.000000	50.185192 
396.500000	50.192225 
397.000000	49.961992 
397.500000	49.549779 
398.000000	49.072889 
398.500000	48.654419 
399.000000	48.274046 
399.500000	47.990211 
400.000000	47.875964 
400.500000	47.815963 
401.000000	48.072477 
401.500000	48.247707 
402.000000	48.213652 
402.500000	47.944713 
403.000000	47.578411 
403.500000	47.098486 
404.000000	46.598419 
404.500000	46.191566 
405.000000	45.884906 
405.500000	45.847878 
406.000000	45.971003 
406.500000	46.056828 
407.000000	46.028452 
407.500000	45.889769 
408.000000	45.627871 
408.500000	45.395689 
409.000000	45.139319 
409.500000	44.847112 
410.000000	44.708617 
410.500000	44.669364 
411.000000	44.634476 
411.500000	44.526938 
412.000000	44.361156 
412.500000	43.978574 
413.000000	43.543213 
413.500000	42.939415 
414.000000	42.171511 
414.500000	41.454943 
415.000000	40.859808 
415.500000	40.359254 
416.000000	39.969362 
416.500000	39.864914 
417.000000	39.767966 
417.500000	39.758249 
418.000000	39.683628 
418.500000	39.527475 
419.000000	39.198989 
419.500000	38.905464 
420.000000	38.449761 
420.500000	37.886082 
421.000000	37.536830 
421.500000	37.247203 
422.000000	36.876785 
422.500000	36.513703 
423.000000	36.231081 
423.500000	35.796808 
424.000000	35.402912 
424.500000	34.891423 
425.000000	34.196729 
425.500000	33.601300 
426.000000	33.149849 
426.500000	32.558137 
427.000000	32.016138 
427.500000	31.591127 
428.000000	31.227620 
428.500000	31.043010 
429.000000	30.942670 
429.500000	30.628218 
430.000000	30.189205 
430.500000	29.830559 
431.000000	29.311976 
431.500000	28.794139 
432.000000	28.328338 
432.500000	27.970670 
433.000000	27.789577 
433.500000	27.859554 
434.000000	27.894016 
434.500000	27.860051 
435.000000	27.752247 
435.500000	27.487530 
436.000000	27.046614 
436.500000	26.487494 
437.000000	25.932088 
437.500000	25.481742 
438.000000	25.223700 
438.500000	25.083406 
439.000000	25.145195 
439.500000	25.373298 
440.000000	25.615406 
440.500000	25.704807 
441.000000	25.629159 
441.500000	25.465009 
442.000000	25.246955 
442.500000	24.924712 
443.000000	24.434850 
443.500000	23.958870 
444.000000	23.594782 
444.500000	23.386310 

