PE FL                   SPECTRUM    ASCII       PEDS        1.60        
  -1
PPB045~1
23/10/10
16:16:31.00
23/10/10
16:16:31.00


444.500000
1









LS55
50.00
5.00
5.00
SCAN
1
20
100
100
0
500
0
2
0
1
7
ON
500 450 
1 0 0
#HDR
-1
-1
#GR
NM

0.00002384185791015625
0.0
250.000000
0.500000
390
8
11.994119
-5.000000
#DATA
250.000000	-5.000000 
250.500000	-3.843919 
251.000000	-2.801580 
251.500000	-2.003451 
252.000000	-1.616691 
252.500000	-1.618484 
253.000000	-1.899280 
253.500000	-2.311014 
254.000000	-2.567452 
254.500000	-2.596582 
255.000000	-2.814748 
255.500000	-2.967513 
256.000000	-2.852748 
256.500000	-2.663490 
257.000000	-2.343040 
257.500000	-1.962746 
258.000000	-1.756800 
258.500000	-1.436899 
259.000000	-0.753743 
259.500000	-0.305170 
260.000000	-0.246383 
260.500000	-0.292277 
261.000000	-0.417015 
261.500000	-0.629555 
262.000000	-1.056626 
262.500000	-2.094640 
263.000000	-2.968638 
263.500000	-3.324220 
264.000000	-3.361747 
264.500000	-3.425009 
265.000000	-3.085348 
265.500000	-2.519575 
266.000000	-1.579486 
266.500000	-0.614226 
267.000000	-0.376607 
267.500000	-0.206962 
268.000000	-0.028952 
268.500000	0.049879  
269.000000	-0.377074 
269.500000	-1.030602 
270.000000	-1.789943 
270.500000	-2.214628 
271.000000	-2.474400 
271.500000	-2.652164 
272.000000	-2.459505 
272.500000	-1.929919 
273.000000	-1.036029 
273.500000	-0.035430 
274.000000	0.697131  
274.500000	1.073332  
275.000000	1.253177  
275.500000	0.901232  
276.000000	0.354941  
276.500000	-0.222622 
277.000000	-0.996198 
277.500000	-1.492000 
278.000000	-1.371527 
278.500000	-1.182098 
279.000000	-0.838047 
279.500000	-0.051338 
280.000000	0.660492  
280.500000	1.332318  
281.000000	1.864055  
281.500000	1.964662  
282.000000	1.944953  
282.500000	1.869771  
283.000000	1.725921  
283.500000	1.181400  
284.000000	0.974592  
284.500000	1.028042  
285.000000	1.169271  
285.500000	1.261298  
286.000000	1.175029  
286.500000	1.082900  
287.000000	0.502267  
287.500000	-0.055237 
288.000000	-1.130324 
288.500000	-1.930411 
289.000000	-2.356194 
289.500000	-2.298377 
290.000000	-1.795449 
290.500000	-0.769436 
291.000000	0.667534  
291.500000	1.725942  
292.000000	2.618337  
292.500000	2.592617  
293.000000	2.010588  
293.500000	1.299575  
294.000000	0.603421  
294.500000	0.033293  
295.000000	-0.037083 
295.500000	0.452215  
296.000000	1.196269  
296.500000	2.179208  
297.000000	2.760822  
297.500000	2.970538  
298.000000	3.067004  
298.500000	3.186987  
299.000000	3.020809  
299.500000	2.564385  
300.000000	2.079669  
300.500000	1.777914  
301.000000	1.678937  
301.500000	1.367390  
302.000000	1.133601  
302.500000	0.849463  
303.000000	0.919510  
303.500000	1.081007  
304.000000	1.194143  
304.500000	1.419040  
305.000000	1.784709  
305.500000	2.241163  
306.000000	2.365789  
306.500000	2.785072  
307.000000	2.995314  
307.500000	3.298134  
308.000000	3.399744  
308.500000	3.321018  
309.000000	3.170227  
309.500000	3.080073  
310.000000	3.109062  
310.500000	2.943030  
311.000000	3.239707  
311.500000	3.711483  
312.000000	4.648601  
312.500000	5.488119  
313.000000	6.320627  
313.500000	7.093558  
314.000000	7.834587  
314.500000	8.443139  
315.000000	8.863808  
315.500000	9.111664  
316.000000	9.086137  
316.500000	9.187033  
317.000000	9.051627  
317.500000	8.769404  
318.000000	8.510880  
318.500000	8.337716  
319.000000	8.080224  
319.500000	7.949225  
320.000000	7.931844  
320.500000	7.993787  
321.000000	8.190541  
321.500000	8.342977  
322.000000	8.284125  
322.500000	8.273335  
323.000000	8.285555  
323.500000	8.050448  
324.000000	7.775821  
324.500000	7.526970  
325.000000	7.426958  
325.500000	7.348619  
326.000000	7.321087  
326.500000	7.123917  
327.000000	7.082303  
327.500000	7.285239  
328.000000	7.463335  
328.500000	7.632990  
329.000000	7.874775  
329.500000	8.255596  
330.000000	8.512576  
330.500000	8.706624  
331.000000	8.653810  
331.500000	8.520965  
332.000000	8.518687  
332.500000	8.345805  
333.000000	8.042476  
333.500000	7.744322  
334.000000	7.573170  
334.500000	7.495293  
335.000000	7.526134  
335.500000	7.527350  
336.000000	7.505492  
336.500000	7.820654  
337.000000	8.040923  
337.500000	8.140921  
338.000000	8.263317  
338.500000	8.428174  
339.000000	8.534758  
339.500000	8.657534  
340.000000	8.708201  
340.500000	8.706327  
341.000000	8.989280  
341.500000	9.278118  
342.000000	9.501802  
342.500000	9.690399  
343.000000	9.889480  
343.500000	10.001726 
344.000000	9.969153  
344.500000	9.768753  
345.000000	9.560738  
345.500000	9.390373  
346.000000	9.283169  
346.500000	9.205175  
347.000000	9.187518  
347.500000	9.211594  
348.000000	9.356832  
348.500000	9.464363  
349.000000	9.383999  
349.500000	9.343261  
350.000000	9.157817  
350.500000	8.969294  
351.000000	8.818654  
351.500000	8.710777  
352.000000	8.593179  
352.500000	8.642393  
353.000000	8.751143  
353.500000	8.868208  
354.000000	9.107313  
354.500000	9.334489  
355.000000	9.523513  
355.500000	9.657033  
356.000000	9.790706  
356.500000	9.846166  
357.000000	9.814781  
357.500000	9.666788  
358.000000	9.573682  
358.500000	9.455375  
359.000000	9.317737  
359.500000	9.219293  
360.000000	9.142641  
360.500000	9.192348  
361.000000	9.415833  
361.500000	9.667545  
362.000000	9.911322  
362.500000	10.208272 
363.000000	10.451700 
363.500000	10.573217 
364.000000	10.515939 
364.500000	10.246466 
365.000000	9.854657  
365.500000	9.478427  
366.000000	9.057148  
366.500000	8.678064  
367.000000	8.329686  
367.500000	8.280100  
368.000000	8.461836  
368.500000	8.839725  
369.000000	9.376416  
369.500000	9.924802  
370.000000	10.495190 
370.500000	11.007306 
371.000000	11.380287 
371.500000	11.319406 
372.000000	11.209043 
372.500000	11.038666 
373.000000	10.849013 
373.500000	10.619809 
374.000000	10.339651 
374.500000	10.239405 
375.000000	10.328368 
375.500000	10.570248 
376.000000	10.717446 
376.500000	10.965264 
377.000000	11.209068 
377.500000	11.570740 
378.000000	11.867176 
378.500000	11.931132 
379.000000	11.994119 
379.500000	11.970605 
380.000000	11.823285 
380.500000	11.480150 
381.000000	11.004484 
381.500000	10.472629 
382.000000	10.043842 
382.500000	9.647140  
383.000000	9.239655  
383.500000	9.047271  
384.000000	9.104669  
384.500000	9.356843  
385.000000	9.672718  
385.500000	9.990672  
386.000000	10.259573 
386.500000	10.457489 
387.000000	10.496103 
387.500000	10.352124 
388.000000	10.170895 
388.500000	10.086112 
389.000000	10.106662 
389.500000	10.192684 
390.000000	10.296928 
390.500000	10.402275 
391.000000	10.571613 
391.500000	10.661589 
392.000000	10.594736 
392.500000	10.382951 
393.000000	10.105320 
393.500000	9.746915  
394.000000	9.396146  
394.500000	9.047542  
395.000000	8.664313  
395.500000	8.396062  
396.000000	8.234281  
396.500000	8.163986  
397.000000	8.197257  
397.500000	8.343778  
398.000000	8.478673  
398.500000	8.671230  
399.000000	8.824966  
399.500000	8.859162  
400.000000	8.793883  
400.500000	8.629257  
401.000000	8.446554  
401.500000	8.284895  
402.000000	8.184691  
402.500000	8.142794  
403.000000	8.196250  
403.500000	8.283615  
404.000000	8.431913  
404.500000	8.569760  
405.000000	8.673100  
405.500000	8.684065  
406.000000	8.620682  
406.500000	8.503730  
407.000000	8.415551  
407.500000	8.331189  
408.000000	8.238595  
408.500000	8.101398  
409.000000	7.921910  
409.500000	7.777147  
410.000000	7.591403  
410.500000	7.417745  
411.000000	7.232802  
411.500000	7.121139  
412.000000	7.079827  
412.500000	7.172149  
413.000000	7.295695  
413.500000	7.423939  
414.000000	7.633262  
414.500000	7.783818  
415.000000	7.859374  
415.500000	7.832991  
416.000000	7.737306  
416.500000	7.561073  
417.000000	7.398211  
417.500000	7.153282  
418.000000	6.862101  
418.500000	6.612194  
419.000000	6.408523  
419.500000	6.219287  
420.000000	6.052572  
420.500000	5.916545  
421.000000	5.834106  
421.500000	5.872868  
422.000000	5.925536  
422.500000	5.958770  
423.000000	6.030597  
423.500000	6.176837  
424.000000	6.311178  
424.500000	6.387064  
425.000000	6.389559  
425.500000	6.336579  
426.000000	6.275337  
426.500000	6.167633  
427.000000	6.012909  
427.500000	5.884524  
428.000000	5.790176  
428.500000	5.718121  
429.000000	5.652109  
429.500000	5.589006  
430.000000	5.519470  
430.500000	5.437796  
431.000000	5.344222  
431.500000	5.242095  
432.000000	5.217261  
432.500000	5.250073  
433.000000	5.319005  
433.500000	5.381559  
434.000000	5.437917  
434.500000	5.492697  
435.000000	5.503315  
435.500000	5.482398  
436.000000	5.414296  
436.500000	5.343036  
437.000000	5.294128  
437.500000	5.295272  
438.000000	5.299190  
438.500000	5.310111  
439.000000	5.319353  
439.500000	5.303247  
440.000000	5.296506  
440.500000	5.269043  
441.000000	5.206334  
441.500000	5.139451  
442.000000	5.089548  
442.500000	5.054759  
443.000000	5.044271  
443.500000	5.024939  
444.000000	4.991851  
444.500000	4.980167  

