PE FL                   SPECTRUM    ASCII       PEDS        1.60        
  -1
PPA0DD~1
23/10/10
16:15:50.00
23/10/10
16:15:50.00


444.500000
1









LS55
45.00
5.00
5.00
SCAN
1
20
100
100
0
500
0
2
0
1
7
ON
500 450 
1 0 0
#HDR
-1
-1
#GR
NM

0.00002384185791015625
0.0
250.000000
0.500000
390
8
10.517057
-3.866975
#DATA
250.000000	1.379000  
250.500000	0.230270  
251.000000	-0.896655 
251.500000	-1.693014 
252.000000	-2.136196 
252.500000	-1.940260 
253.000000	-1.461837 
253.500000	-1.159705 
254.000000	-0.723035 
254.500000	-0.330703 
255.000000	0.063733  
255.500000	0.122420  
256.000000	0.025369  
256.500000	-0.482639 
257.000000	-0.915878 
257.500000	-1.233420 
258.000000	-1.791483 
258.500000	-2.351733 
259.000000	-2.857323 
259.500000	-3.121169 
260.000000	-3.461576 
260.500000	-3.498451 
261.000000	-3.671200 
261.500000	-3.821726 
262.000000	-3.708789 
262.500000	-3.628113 
263.000000	-3.745713 
263.500000	-3.866975 
264.000000	-3.691773 
264.500000	-3.382070 
265.000000	-2.893749 
265.500000	-2.431138 
266.000000	-2.167043 
266.500000	-1.885223 
267.000000	-1.399452 
267.500000	-1.586707 
268.000000	-1.894883 
268.500000	-1.895636 
269.000000	-1.882386 
269.500000	-1.710793 
270.000000	-1.092400 
270.500000	-0.454811 
271.000000	0.259827  
271.500000	1.254611  
272.000000	1.241281  
272.500000	0.746660  
273.000000	0.267033  
273.500000	-0.387512 
274.000000	-1.362482 
274.500000	-2.046731 
275.000000	-2.548258 
275.500000	-2.699983 
276.000000	-2.395069 
276.500000	-2.489983 
277.000000	-2.540878 
277.500000	-2.399009 
278.000000	-2.104117 
278.500000	-2.191722 
279.000000	-2.267680 
279.500000	-2.344148 
280.000000	-2.176480 
280.500000	-1.876518 
281.000000	-1.392726 
281.500000	-0.894850 
282.000000	-0.554841 
282.500000	-0.032985 
283.000000	0.648548  
283.500000	1.364659  
284.000000	1.721359  
284.500000	2.006603  
285.000000	1.859005  
285.500000	1.534399  
286.000000	1.152002  
286.500000	0.378435  
287.000000	-0.450037 
287.500000	-1.008324 
288.000000	-1.260190 
288.500000	-1.584464 
289.000000	-1.776480 
289.500000	-2.117003 
290.000000	-2.539083 
290.500000	-2.736226 
291.000000	-2.962429 
291.500000	-3.052611 
292.000000	-2.663164 
292.500000	-1.919943 
293.000000	-1.249689 
293.500000	-0.414237 
294.000000	0.451954  
294.500000	0.789671  
295.000000	0.923087  
295.500000	0.694981  
296.000000	0.393192  
296.500000	0.511130  
297.000000	0.954229  
297.500000	1.379268  
298.000000	1.756494  
298.500000	2.036379  
299.000000	1.956056  
299.500000	1.782931  
300.000000	1.414866  
300.500000	0.763145  
301.000000	0.414252  
301.500000	0.545933  
302.000000	0.706699  
302.500000	0.713096  
303.000000	0.579817  
303.500000	0.389634  
304.000000	0.338391  
304.500000	0.431817  
305.000000	0.264415  
305.500000	0.169365  
306.000000	0.373867  
306.500000	0.847771  
307.000000	1.183175  
307.500000	1.351260  
308.000000	1.413033  
308.500000	1.621791  
309.000000	2.069826  
309.500000	2.470828  
310.000000	3.226042  
310.500000	3.972504  
311.000000	4.697730  
311.500000	5.036332  
312.000000	4.966760  
312.500000	4.640056  
313.000000	4.437291  
313.500000	4.169674  
314.000000	3.879808  
314.500000	4.112864  
315.000000	4.629235  
315.500000	5.532479  
316.000000	6.425624  
316.500000	7.203235  
317.000000	7.980632  
317.500000	8.837246  
318.000000	9.307235  
318.500000	9.468473  
319.000000	9.435819  
319.500000	9.360934  
320.000000	9.500930  
320.500000	9.759290  
321.000000	9.915981  
321.500000	10.134570 
322.000000	10.361743 
322.500000	10.438989 
323.000000	10.382381 
323.500000	10.026291 
324.000000	9.356652  
324.500000	8.609756  
325.000000	8.106373  
325.500000	7.800715  
326.000000	7.742941  
326.500000	7.775649  
327.000000	8.050101  
327.500000	8.414456  
328.000000	8.727886  
328.500000	8.907278  
329.000000	8.797797  
329.500000	8.814493  
330.000000	8.950958  
330.500000	9.033938  
331.000000	8.960535  
331.500000	8.913683  
332.000000	8.809998  
332.500000	8.546219  
333.000000	8.270841  
333.500000	7.915049  
334.000000	7.700768  
334.500000	7.807261  
335.000000	7.972525  
335.500000	8.140773  
336.000000	8.256470  
336.500000	8.311987  
337.000000	8.171678  
337.500000	7.927679  
338.000000	7.710929  
338.500000	7.446819  
339.000000	7.399596  
339.500000	7.408478  
340.000000	7.566207  
340.500000	7.791687  
341.000000	7.873866  
341.500000	7.901438  
342.000000	7.833294  
342.500000	7.940534  
343.000000	8.018257  
343.500000	8.259894  
344.000000	8.491154  
344.500000	8.780680  
345.000000	9.044663  
345.500000	9.143357  
346.000000	9.180633  
346.500000	9.009555  
347.000000	8.937081  
347.500000	8.840371  
348.000000	8.857182  
348.500000	8.929151  
349.000000	9.066396  
349.500000	9.142252  
350.000000	9.151600  
350.500000	9.221106  
351.000000	9.071717  
351.500000	8.885930  
352.000000	8.602812  
352.500000	8.324333  
353.000000	8.101915  
353.500000	8.001457  
354.000000	7.922238  
354.500000	7.941940  
355.000000	8.199475  
355.500000	8.360192  
356.000000	8.506852  
356.500000	8.576413  
357.000000	8.612295  
357.500000	8.605876  
358.000000	8.516438  
358.500000	8.334866  
359.000000	8.159145  
359.500000	8.112686  
360.000000	7.986109  
360.500000	7.913355  
361.000000	7.924124  
361.500000	8.077041  
362.000000	8.393597  
362.500000	8.763536  
363.000000	9.103153  
363.500000	9.490029  
364.000000	9.900411  
364.500000	10.103762 
365.000000	10.265258 
365.500000	10.332265 
366.000000	10.380478 
366.500000	10.465956 
367.000000	10.517057 
367.500000	10.413010 
368.000000	10.258723 
368.500000	10.162355 
369.000000	9.957740  
369.500000	9.717822  
370.000000	9.590835  
370.500000	9.620147  
371.000000	9.727386  
371.500000	9.914882  
372.000000	9.959160  
372.500000	9.852958  
373.000000	9.688808  
373.500000	9.440836  
374.000000	9.031204  
374.500000	8.725157  
375.000000	8.630794  
375.500000	8.680294  
376.000000	8.949413  
376.500000	9.276204  
377.000000	9.479122  
377.500000	9.680752  
378.000000	9.892490  
378.500000	9.971411  
379.000000	10.050905 
379.500000	10.057053 
380.000000	10.033177 
380.500000	10.051530 
381.000000	10.155063 
381.500000	10.171542 
382.000000	10.193641 
382.500000	10.112802 
383.000000	10.076739 
383.500000	10.152294 
384.000000	10.154007 
384.500000	10.146574 
385.000000	10.103400 
385.500000	10.110588 
386.000000	10.070711 
386.500000	10.078839 
387.000000	9.910857  
387.500000	9.710538  
388.000000	9.630772  
388.500000	9.505271  
389.000000	9.405268  
389.500000	9.262592  
390.000000	9.079642  
390.500000	8.894951  
391.000000	8.770737  
391.500000	8.649603  
392.000000	8.455334  
392.500000	8.336696  
393.000000	8.273325  
393.500000	8.211785  
394.000000	8.180959  
394.500000	8.149664  
395.000000	8.070326  
395.500000	7.938356  
396.000000	7.855980  
396.500000	7.689453  
397.000000	7.570749  
397.500000	7.516700  
398.000000	7.445791  
398.500000	7.412895  
399.000000	7.352556  
399.500000	7.264139  
400.000000	7.145775  
400.500000	7.126101  
401.000000	7.122329  
401.500000	7.143321  
402.000000	7.266870  
402.500000	7.473451  
403.000000	7.763769  
403.500000	7.991590  
404.000000	8.127180  
404.500000	8.170869  
405.000000	8.098089  
405.500000	7.959604  
406.000000	7.706802  
406.500000	7.391272  
407.000000	7.166517  
407.500000	7.080598  
408.000000	7.047071  
408.500000	7.038519  
409.000000	7.052458  
409.500000	7.063142  
410.000000	7.106890  
410.500000	7.044615  
411.000000	6.863020  
411.500000	6.624621  
412.000000	6.425632  
412.500000	6.218395  
413.000000	6.034597  
413.500000	5.884664  
414.000000	5.800351  
414.500000	5.803088  
415.000000	5.842983  
415.500000	5.913046  
416.000000	5.961904  
416.500000	6.050916  
417.000000	6.124350  
417.500000	6.175261  
418.000000	6.127922  
418.500000	6.063639  
419.000000	5.964763  
419.500000	5.846546  
420.000000	5.761575  
420.500000	5.682045  
421.000000	5.692572  
421.500000	5.731261  
422.000000	5.828118  
422.500000	5.897327  
423.000000	5.965465  
423.500000	5.942889  
424.000000	5.864686  
424.500000	5.713126  
425.000000	5.485692  
425.500000	5.283582  
426.000000	5.090647  
426.500000	4.959333  
427.000000	4.883032  
427.500000	4.876094  
428.000000	4.867877  
428.500000	4.905538  
429.000000	4.942445  
429.500000	4.921363  
430.000000	4.899313  
430.500000	4.825466  
431.000000	4.738030  
431.500000	4.669060  
432.000000	4.627163  
432.500000	4.562822  
433.000000	4.538123  
433.500000	4.536937  
434.000000	4.562188  
434.500000	4.595838  
435.000000	4.631189  
435.500000	4.687757  
436.000000	4.794063  
436.500000	4.925833  
437.000000	5.039779  
437.500000	5.122636  
438.000000	5.154137  
438.500000	5.144723  
439.000000	5.043605  
439.500000	4.904174  
440.000000	4.743463  
440.500000	4.612713  
441.000000	4.541011  
441.500000	4.546247  
442.000000	4.587644  
442.500000	4.642217  
443.000000	4.708800  
443.500000	4.700024  
444.000000	4.683044  
444.500000	4.647770  

