PE FL                   SPECTRUM    ASCII       PEDS        1.60        
  -1
PPA06D~1
23/10/10
16:11:07.00
23/10/10
16:11:07.00


444.500000
1









LS55
10.00
5.00
5.00
SCAN
1
20
100
100
0
500
0
2
0
1
7
ON
500 450 
1 0 0
#HDR
-1
-1
#GR
NM

0.00002384185791015625
0.0
250.000000
0.500000
390
8
4.216979
-4.777451
#DATA
250.000000	-4.128000 
250.500000	-2.440587 
251.000000	-1.105617 
251.500000	-0.575384 
252.000000	-0.678209 
252.500000	-0.892468 
253.000000	-1.320180 
253.500000	-1.749738 
254.000000	-2.079661 
254.500000	-1.606270 
255.000000	-0.551550 
255.500000	0.978615  
256.000000	1.950316  
256.500000	2.538908  
257.000000	3.167140  
257.500000	3.666462  
258.000000	3.651176  
258.500000	2.828572  
259.000000	2.041106  
259.500000	1.084170  
260.000000	0.268659  
260.500000	-0.792083 
261.000000	-2.066932 
261.500000	-2.757036 
262.000000	-2.915504 
262.500000	-2.905663 
263.000000	-2.839864 
263.500000	-2.508915 
264.000000	-2.125977 
264.500000	-1.576844 
265.000000	-1.105236 
265.500000	-1.113532 
266.000000	-1.008965 
266.500000	-0.957648 
267.000000	-1.029256 
267.500000	-1.214996 
268.000000	-1.595541 
268.500000	-2.297511 
269.000000	-2.992299 
269.500000	-3.386807 
270.000000	-3.671459 
270.500000	-3.599011 
271.000000	-3.324934 
271.500000	-2.878632 
272.000000	-2.128775 
272.500000	-1.391297 
273.000000	-0.991113 
273.500000	-0.909893 
274.000000	-1.012632 
274.500000	-1.184227 
275.000000	-1.457658 
275.500000	-1.874912 
276.000000	-2.558458 
276.500000	-3.232348 
277.000000	-3.777296 
277.500000	-4.207637 
278.000000	-4.527608 
278.500000	-4.681852 
279.000000	-4.777451 
279.500000	-4.445368 
280.000000	-3.838735 
280.500000	-3.289126 
281.000000	-2.819720 
281.500000	-2.618741 
282.000000	-2.639949 
282.500000	-2.667293 
283.000000	-2.706503 
283.500000	-3.312856 
284.000000	-3.733045 
284.500000	-3.935736 
285.000000	-3.997234 
285.500000	-3.914395 
286.000000	-3.691121 
286.500000	-3.455989 
287.000000	-3.069721 
287.500000	-2.667866 
288.000000	-2.868608 
288.500000	-2.971387 
289.000000	-2.967213 
289.500000	-3.024850 
290.000000	-2.893744 
290.500000	-2.453039 
291.000000	-2.021700 
291.500000	-1.482203 
292.000000	-0.988935 
292.500000	-0.844448 
293.000000	-0.792774 
293.500000	-0.866089 
294.000000	-1.261531 
294.500000	-1.739424 
295.000000	-2.151405 
295.500000	-2.695405 
296.000000	-3.271042 
296.500000	-3.869798 
297.000000	-4.370790 
297.500000	-4.540141 
298.000000	-4.525589 
298.500000	-4.349391 
299.000000	-3.804636 
299.500000	-2.928186 
300.000000	-2.077396 
300.500000	-1.572973 
301.000000	-1.471094 
301.500000	-1.640181 
302.000000	-1.916872 
302.500000	-2.493716 
303.000000	-3.094276 
303.500000	-3.563088 
304.000000	-3.882751 
304.500000	-3.924446 
305.000000	-3.848583 
305.500000	-3.764869 
306.000000	-3.716572 
306.500000	-3.442195 
307.000000	-3.398416 
307.500000	-3.107178 
308.000000	-2.618340 
308.500000	-1.982665 
309.000000	-1.130277 
309.500000	-0.223563 
310.000000	0.694542  
310.500000	1.391201  
311.000000	1.888501  
311.500000	1.750519  
312.000000	1.504283  
312.500000	1.087525  
313.000000	0.621688  
313.500000	0.172934  
314.000000	-0.168927 
314.500000	-0.266086 
315.000000	-0.126378 
315.500000	0.197338  
316.000000	0.382846  
316.500000	0.512663  
317.000000	0.497601  
317.500000	0.438579  
318.000000	0.337168  
318.500000	0.124570  
319.000000	-0.128399 
319.500000	-0.279988 
320.000000	-0.167264 
320.500000	0.096096  
321.000000	0.438969  
321.500000	0.962083  
322.000000	1.564123  
322.500000	2.205245  
323.000000	2.780130  
323.500000	3.175340  
324.000000	3.220385  
324.500000	3.366149  
325.000000	3.307498  
325.500000	3.128045  
326.000000	3.011019  
326.500000	2.869637  
327.000000	2.735684  
327.500000	2.611543  
328.000000	2.649655  
328.500000	2.496997  
329.000000	2.588721  
329.500000	2.561347  
330.000000	2.550763  
330.500000	2.600848  
331.000000	2.586067  
331.500000	2.377968  
332.000000	2.117706  
332.500000	1.952497  
333.000000	1.682551  
333.500000	1.603332  
334.000000	1.566611  
334.500000	1.695017  
335.000000	2.004332  
335.500000	2.450195  
336.000000	2.790104  
336.500000	2.991956  
337.000000	3.215356  
337.500000	3.231584  
338.000000	3.220021  
338.500000	3.102391  
339.000000	2.908550  
339.500000	2.745577  
340.000000	2.710400  
340.500000	2.620793  
341.000000	2.419299  
341.500000	2.232792  
342.000000	1.949240  
342.500000	1.832012  
343.000000	1.775869  
343.500000	1.701691  
344.000000	1.707042  
344.500000	1.879636  
345.000000	2.224641  
345.500000	2.535255  
346.000000	2.773327  
346.500000	2.874701  
347.000000	3.004551  
347.500000	3.064332  
348.000000	2.959750  
348.500000	2.867596  
349.000000	2.701953  
349.500000	2.605340  
350.000000	2.664090  
350.500000	2.778394  
351.000000	2.887673  
351.500000	2.993443  
352.000000	3.076676  
352.500000	3.031964  
353.000000	2.992642  
353.500000	2.852756  
354.000000	2.656417  
354.500000	2.542350  
355.000000	2.582247  
355.500000	2.752137  
356.000000	3.066201  
356.500000	3.399097  
357.000000	3.607764  
357.500000	3.783051  
358.000000	3.950758  
358.500000	4.057255  
359.000000	4.063584  
359.500000	4.007381  
360.000000	3.970831  
360.500000	4.011743  
361.000000	4.081218  
361.500000	3.976321  
362.000000	3.673274  
362.500000	3.375181  
363.000000	3.131041  
363.500000	2.928002  
364.000000	2.775615  
364.500000	2.795800  
365.000000	2.958208  
365.500000	3.278417  
366.000000	3.510692  
366.500000	3.619774  
367.000000	3.681860  
367.500000	3.666932  
368.000000	3.514830  
368.500000	3.258787  
369.000000	3.108057  
369.500000	3.031477  
370.000000	3.105973  
370.500000	3.255672  
371.000000	3.443269  
371.500000	3.686740  
372.000000	3.893177  
372.500000	3.980758  
373.000000	3.899207  
373.500000	3.755835  
374.000000	3.634063  
374.500000	3.480745  
375.000000	3.372757  
375.500000	3.343071  
376.000000	3.384061  
376.500000	3.513405  
377.000000	3.775253  
377.500000	3.948415  
378.000000	4.039426  
378.500000	4.187141  
379.000000	4.216979  
379.500000	4.144551  
380.000000	3.992180  
380.500000	3.762851  
381.000000	3.466082  
381.500000	3.259728  
382.000000	2.992134  
382.500000	2.737742  
383.000000	2.619053  
383.500000	2.619810  
384.000000	2.681500  
384.500000	2.778797  
385.000000	2.915367  
385.500000	3.018428  
386.000000	3.166194  
386.500000	3.252803  
387.000000	3.294856  
387.500000	3.315984  
388.000000	3.371588  
388.500000	3.369437  
389.000000	3.319868  
389.500000	3.341954  
390.000000	3.328705  
390.500000	3.330601  
391.000000	3.314222  
391.500000	3.300721  
392.000000	3.246212  
392.500000	3.253415  
393.000000	3.226656  
393.500000	3.177329  
394.000000	3.203935  
394.500000	3.199669  
395.000000	3.187793  
395.500000	3.178582  
396.000000	3.174204  
396.500000	3.118957  
397.000000	3.121007  
397.500000	3.092680  
398.000000	3.081499  
398.500000	3.131742  
399.000000	3.192684  
399.500000	3.296785  
400.000000	3.403356  
400.500000	3.515594  
401.000000	3.561501  
401.500000	3.586119  
402.000000	3.537878  
402.500000	3.464221  
403.000000	3.366080  
403.500000	3.275684  
404.000000	3.224489  
404.500000	3.178463  
405.000000	3.125470  
405.500000	3.045349  
406.000000	3.002525  
406.500000	2.975968  
407.000000	2.954301  
407.500000	2.880398  
408.000000	2.790404  
408.500000	2.763555  
409.000000	2.791842  
409.500000	2.860710  
410.000000	2.870400  
410.500000	2.879656  
411.000000	2.889260  
411.500000	2.894279  
412.000000	2.843047  
412.500000	2.769620  
413.000000	2.691945  
413.500000	2.641224  
414.000000	2.689104  
414.500000	2.723757  
415.000000	2.783547  
415.500000	2.839762  
416.000000	2.911476  
416.500000	2.963961  
417.000000	2.967812  
417.500000	2.915463  
418.000000	2.812459  
418.500000	2.734659  
419.000000	2.638816  
419.500000	2.575118  
420.000000	2.496205  
420.500000	2.430137  
421.000000	2.416757  
421.500000	2.428359  
422.000000	2.475705  
422.500000	2.511287  
423.000000	2.541528  
423.500000	2.534479  
424.000000	2.523015  
424.500000	2.443332  
425.000000	2.339983  
425.500000	2.257951  
426.000000	2.192506  
426.500000	2.179055  
427.000000	2.196674  
427.500000	2.232631  
428.000000	2.269724  
428.500000	2.309001  
429.000000	2.294484  
429.500000	2.245349  
430.000000	2.183497  
430.500000	2.101945  
431.000000	2.031244  
431.500000	1.980637  
432.000000	1.944582  
432.500000	1.938403  
433.000000	1.937951  
433.500000	1.933730  
434.000000	1.947440  
434.500000	1.982174  
435.000000	2.003088  
435.500000	2.032120  
436.000000	2.064460  
436.500000	2.100839  
437.000000	2.153605  
437.500000	2.187737  
438.000000	2.202322  
438.500000	2.204066  
439.000000	2.212163  
439.500000	2.201042  
440.000000	2.179392  
440.500000	2.147371  
441.000000	2.097469  
441.500000	2.050433  
442.000000	2.020430  
442.500000	1.979369  
443.000000	1.960404  
443.500000	1.967785  
444.000000	1.980068  
444.500000	2.009064  

