PE FL                   SPECTRUM    ASCII       PEDS        1.60        
  -1
PPA0BD~1
23/10/10
16:14:29.00
23/10/10
16:14:29.00


444.500000
1









LS55
35.00
5.00
5.00
SCAN
1
20
100
100
0
500
0
2
0
1
7
ON
500 450 
1 0 0
#HDR
-1
-1
#GR
NM

0.00002384185791015625
0.0
250.000000
0.500000
390
8
9.669352
-3.838552
#DATA
250.000000	-2.774000 
250.500000	-2.260704 
251.000000	-1.737258 
251.500000	-1.149224 
252.000000	-1.159423 
252.500000	-0.945696 
253.000000	-0.976902 
253.500000	-0.900320 
254.000000	-1.030468 
254.500000	-1.375348 
255.000000	-1.641656 
255.500000	-2.014712 
256.000000	-2.235558 
256.500000	-3.002537 
257.000000	-3.445608 
257.500000	-3.826302 
258.000000	-3.836462 
258.500000	-3.644657 
259.000000	-3.479449 
259.500000	-3.155101 
260.000000	-2.877327 
260.500000	-2.524102 
261.000000	-2.669145 
261.500000	-2.781423 
262.000000	-2.834743 
262.500000	-2.881617 
263.000000	-2.810577 
263.500000	-2.656229 
264.000000	-2.536790 
264.500000	-2.495720 
265.000000	-2.763675 
265.500000	-3.037976 
266.000000	-3.146148 
266.500000	-3.221586 
267.000000	-3.202418 
267.500000	-2.963159 
268.000000	-2.486324 
268.500000	-2.236159 
269.000000	-2.016728 
269.500000	-2.198395 
270.000000	-2.198031 
270.500000	-1.886729 
271.000000	-1.570007 
271.500000	-1.382894 
272.000000	-1.172123 
272.500000	-0.644231 
273.000000	-0.467561 
273.500000	-0.551954 
274.000000	-1.039337 
274.500000	-1.655726 
275.000000	-1.848583 
275.500000	-1.931674 
276.000000	-2.014118 
276.500000	-2.016531 
277.000000	-1.418151 
277.500000	-0.747191 
278.000000	-0.286754 
278.500000	0.170510  
279.000000	0.357631  
279.500000	0.617257  
280.000000	0.783162  
280.500000	0.543093  
281.000000	-0.068922 
281.500000	-0.775431 
282.000000	-1.485165 
282.500000	-2.578439 
283.000000	-3.235732 
283.500000	-3.756424 
284.000000	-3.838552 
284.500000	-3.469940 
285.000000	-2.923622 
285.500000	-2.176185 
286.000000	-1.510316 
286.500000	-0.750860 
287.000000	-0.487202 
287.500000	-0.268657 
288.000000	-0.170930 
288.500000	-0.329339 
289.000000	-0.463317 
289.500000	-0.628763 
290.000000	-0.699711 
290.500000	-1.222117 
291.000000	-1.630945 
291.500000	-2.098328 
292.000000	-2.458187 
292.500000	-2.498145 
293.000000	-2.586871 
293.500000	-2.532397 
294.000000	-2.267168 
294.500000	-1.797701 
295.000000	-1.597782 
295.500000	-1.643176 
296.000000	-1.696258 
296.500000	-1.731913 
297.000000	-1.541436 
297.500000	-1.270748 
298.000000	-0.936514 
298.500000	-0.490939 
299.000000	-0.071458 
299.500000	0.193664  
300.000000	0.182704  
300.500000	0.132425  
301.000000	0.217375  
301.500000	0.338343  
302.000000	0.792253  
302.500000	1.352664  
303.000000	1.925821  
303.500000	2.209154  
304.000000	2.123465  
304.500000	1.833243  
305.000000	1.416917  
305.500000	0.985784  
306.000000	0.325891  
306.500000	-0.108241 
307.000000	-0.136930 
307.500000	0.159321  
308.000000	0.691115  
308.500000	0.950313  
309.000000	1.308586  
309.500000	1.872409  
310.000000	2.539898  
310.500000	2.989034  
311.000000	3.389044  
311.500000	3.801222  
312.000000	3.968349  
312.500000	4.211953  
313.000000	4.283745  
313.500000	4.349624  
314.000000	4.676952  
314.500000	5.216411  
315.000000	5.895920  
315.500000	6.482532  
316.000000	6.984115  
316.500000	7.072645  
317.000000	7.147253  
317.500000	7.154189  
318.000000	6.958127  
318.500000	6.858205  
319.000000	6.880486  
319.500000	7.184725  
320.000000	7.710409  
320.500000	8.305693  
321.000000	8.709055  
321.500000	9.174106  
322.000000	9.592985  
322.500000	9.669352  
323.000000	9.628855  
323.500000	9.348843  
324.000000	9.122588  
324.500000	8.964178  
325.000000	8.569082  
325.500000	7.898449  
326.000000	7.410129  
326.500000	7.050370  
327.000000	6.704689  
327.500000	6.445720  
328.000000	6.247797  
328.500000	6.131023  
329.000000	6.230086  
329.500000	6.298440  
330.000000	6.187209  
330.500000	6.144971  
331.000000	6.102986  
331.500000	6.091948  
332.000000	6.046829  
332.500000	5.988999  
333.000000	5.970828  
333.500000	6.117318  
334.000000	6.386697  
334.500000	6.414299  
335.000000	6.596290  
335.500000	6.714498  
336.000000	6.905568  
336.500000	6.975338  
337.000000	6.951333  
337.500000	6.898839  
338.000000	6.945782  
338.500000	7.147355  
339.000000	7.165623  
339.500000	7.258247  
340.000000	7.316453  
340.500000	7.494416  
341.000000	7.587757  
341.500000	7.557501  
342.000000	7.417662  
342.500000	7.230978  
343.000000	7.116877  
343.500000	6.955509  
344.000000	6.828355  
344.500000	6.779762  
345.000000	6.839743  
345.500000	6.889550  
346.000000	6.849368  
346.500000	6.852694  
347.000000	6.793858  
347.500000	6.631676  
348.000000	6.452600  
348.500000	6.246208  
349.000000	6.063938  
349.500000	5.917556  
350.000000	5.875100  
350.500000	5.874421  
351.000000	6.045343  
351.500000	6.276497  
352.000000	6.510189  
352.500000	6.763830  
353.000000	6.989748  
353.500000	7.143098  
354.000000	7.177381  
354.500000	7.241395  
355.000000	7.258306  
355.500000	7.201104  
356.000000	7.129232  
356.500000	7.003045  
357.000000	6.924176  
357.500000	6.837593  
358.000000	6.678039  
358.500000	6.460060  
359.000000	6.337715  
359.500000	6.379694  
360.000000	6.401996  
360.500000	6.422156  
361.000000	6.455790  
361.500000	6.609146  
362.000000	6.732074  
362.500000	6.853222  
363.000000	6.925992  
363.500000	7.062962  
364.000000	7.313540  
364.500000	7.517490  
365.000000	7.585262  
365.500000	7.553459  
366.000000	7.504657  
366.500000	7.341466  
367.000000	7.159194  
367.500000	6.971854  
368.000000	6.771637  
368.500000	6.734891  
369.000000	6.807672  
369.500000	6.855699  
370.000000	6.891086  
370.500000	6.936606  
371.000000	6.922966  
371.500000	6.880950  
372.000000	6.880828  
372.500000	6.850305  
373.000000	6.853413  
373.500000	6.928736  
374.000000	6.984483  
374.500000	7.008880  
375.000000	7.012197  
375.500000	6.941759  
376.000000	6.817367  
376.500000	6.738132  
377.000000	6.676499  
377.500000	6.645373  
378.000000	6.641705  
378.500000	6.653696  
379.000000	6.679428  
379.500000	6.677872  
380.000000	6.608035  
380.500000	6.458662  
381.000000	6.289716  
381.500000	6.180069  
382.000000	6.143246  
382.500000	6.205902  
383.000000	6.343105  
383.500000	6.576293  
384.000000	6.860143  
384.500000	7.169872  
385.000000	7.393037  
385.500000	7.470546  
386.000000	7.510906  
386.500000	7.480446  
387.000000	7.383500  
387.500000	7.199690  
388.000000	6.954407  
388.500000	6.696732  
389.000000	6.499234  
389.500000	6.330049  
390.000000	6.177560  
390.500000	6.129967  
391.000000	6.148061  
391.500000	6.224286  
392.000000	6.317809  
392.500000	6.370113  
393.000000	6.407533  
393.500000	6.378671  
394.000000	6.283446  
394.500000	6.134232  
395.000000	5.940457  
395.500000	5.784300  
396.000000	5.678000  
396.500000	5.644950  
397.000000	5.646090  
397.500000	5.654847  
398.000000	5.607933  
398.500000	5.576777  
399.000000	5.571109  
399.500000	5.458744  
400.000000	5.372378  
400.500000	5.309626  
401.000000	5.346831  
401.500000	5.513438  
402.000000	5.689044  
402.500000	5.762032  
403.000000	5.899714  
403.500000	6.047586  
404.000000	6.011586  
404.500000	5.884053  
405.000000	5.649016  
405.500000	5.369686  
406.000000	5.197912  
406.500000	5.052245  
407.000000	4.871400  
407.500000	4.776818  
408.000000	4.743365  
408.500000	4.668192  
409.000000	4.579796  
409.500000	4.504545  
410.000000	4.419341  
410.500000	4.405264  
411.000000	4.397209  
411.500000	4.388698  
412.000000	4.451661  
412.500000	4.574961  
413.000000	4.670665  
413.500000	4.684396  
414.000000	4.681870  
414.500000	4.640402  
415.000000	4.628134  
415.500000	4.574440  
416.000000	4.540669  
416.500000	4.583457  
417.000000	4.672303  
417.500000	4.756312  
418.000000	4.774597  
418.500000	4.728387  
419.000000	4.621283  
419.500000	4.485288  
420.000000	4.314702  
420.500000	4.134130  
421.000000	4.002876  
421.500000	3.903627  
422.000000	3.842640  
422.500000	3.846004  
423.000000	3.889224  
423.500000	3.920619  
424.000000	3.931824  
424.500000	3.898974  
425.000000	3.913071  
425.500000	3.967191  
426.000000	3.997903  
426.500000	4.001321  
427.000000	4.021443  
427.500000	4.030320  
428.000000	3.994282  
428.500000	3.922791  
429.000000	3.795059  
429.500000	3.703928  
430.000000	3.614438  
430.500000	3.518850  
431.000000	3.406073  
431.500000	3.350797  
432.000000	3.357002  
432.500000	3.371969  
433.000000	3.411362  
433.500000	3.442891  
434.000000	3.501337  
434.500000	3.551969  
435.000000	3.595223  
435.500000	3.609999  
436.000000	3.655859  
436.500000	3.721355  
437.000000	3.753900  
437.500000	3.774301  
438.000000	3.815495  
438.500000	3.862218  
439.000000	3.867793  
439.500000	3.842270  
440.000000	3.795766  
440.500000	3.745430  
441.000000	3.712941  
441.500000	3.679560  
442.000000	3.641564  
442.500000	3.634695  
443.000000	3.641635  
443.500000	3.648678  
444.000000	3.669870  
444.500000	3.723641  

