PE FL                   SPECTRUM    ASCII       PEDS        1.60        
  -1
PPA05D~1
23/10/10
16:10:27.00
23/10/10
16:10:27.00


444.500000
1









LS55
5.00
5.00
5.00
SCAN
1
20
100
100
0
500
0
2
0
1
7
ON
500 450 
1 0 0
#HDR
-1
-1
#GR
NM

0.00002384185791015625
0.0
250.000000
0.500000
390
8
64.343707
-4.610805
#DATA
250.000000	-2.788000 
250.500000	-2.201681 
251.000000	-1.678443 
251.500000	-1.814838 
252.000000	-2.220024 
252.500000	-2.584998 
253.000000	-3.144430 
253.500000	-3.884654 
254.000000	-4.236299 
254.500000	-4.395782 
255.000000	-4.315743 
255.500000	-3.918704 
256.000000	-3.817850 
256.500000	-4.009408 
257.000000	-4.086973 
257.500000	-4.353189 
258.000000	-4.463139 
258.500000	-4.610805 
259.000000	-4.460285 
259.500000	-4.061934 
260.000000	-3.645623 
260.500000	-3.022583 
261.000000	-2.451397 
261.500000	-1.763488 
262.000000	-1.452919 
262.500000	-1.401511 
263.000000	-1.622998 
263.500000	-1.731908 
264.000000	-1.779455 
264.500000	-2.126562 
265.000000	-2.566077 
265.500000	-2.618074 
266.000000	-2.287680 
266.500000	-1.904114 
267.000000	-1.670075 
267.500000	-1.559903 
268.000000	-1.219424 
268.500000	-0.881323 
269.000000	-0.684660 
269.500000	-0.899075 
270.000000	-1.023955 
270.500000	-1.056667 
271.000000	-1.083550 
271.500000	-1.279546 
272.000000	-1.632992 
272.500000	-1.732719 
273.000000	-1.971859 
273.500000	-1.911613 
274.000000	-1.687591 
274.500000	-1.236499 
275.000000	-0.504337 
275.500000	-0.131491 
276.000000	0.403037  
276.500000	0.778547  
277.000000	1.297450  
277.500000	1.358512  
278.000000	1.344425  
278.500000	1.347611  
279.000000	1.218057  
279.500000	1.241416  
280.000000	0.526530  
280.500000	-0.165790 
281.000000	-0.980258 
281.500000	-1.501064 
282.000000	-2.158333 
282.500000	-2.533019 
283.000000	-2.582110 
283.500000	-2.382205 
284.000000	-1.849344 
284.500000	-1.679626 
285.000000	-1.828450 
285.500000	-2.086901 
286.000000	-2.333458 
286.500000	-2.793106 
287.000000	-3.189622 
287.500000	-3.310413 
288.000000	-3.136064 
288.500000	-2.641543 
289.000000	-2.030962 
289.500000	-1.691041 
290.000000	-1.429926 
290.500000	-1.410019 
291.000000	-1.741666 
291.500000	-2.365342 
292.000000	-3.192829 
292.500000	-3.700861 
293.000000	-3.880282 
293.500000	-3.549170 
294.000000	-3.168502 
294.500000	-2.535207 
295.000000	-2.003908 
295.500000	-1.603169 
296.000000	-1.308105 
296.500000	-1.289798 
297.000000	-1.067676 
297.500000	-0.966089 
298.000000	-0.638642 
298.500000	-0.220035 
299.000000	0.218697  
299.500000	0.486837  
300.000000	0.284431  
300.500000	0.030971  
301.000000	-0.483851 
301.500000	-0.842630 
302.000000	-1.326679 
302.500000	-1.534012 
303.000000	-1.291709 
303.500000	-0.816290 
304.000000	-0.303594 
304.500000	-0.051154 
305.000000	-0.079346 
305.500000	-0.230891 
306.000000	-0.476549 
306.500000	-0.941561 
307.000000	-1.391758 
307.500000	-1.562575 
308.000000	-1.621538 
308.500000	-1.504115 
309.000000	-1.343103 
309.500000	-1.208934 
310.000000	-0.988053 
310.500000	-0.863555 
311.000000	-0.872354 
311.500000	-0.848480 
312.000000	-0.796914 
312.500000	-0.836828 
313.000000	-0.865780 
313.500000	-0.868061 
314.000000	-0.878963 
314.500000	-0.851787 
315.000000	-0.625318 
315.500000	-0.373593 
316.000000	0.063959  
316.500000	0.671384  
317.000000	1.317342  
317.500000	2.014867  
318.000000	2.507153  
318.500000	3.082716  
319.000000	3.543334  
319.500000	4.030157  
320.000000	4.594020  
320.500000	4.965650  
321.000000	5.373170  
321.500000	5.883944  
322.000000	6.292538  
322.500000	6.555406  
323.000000	7.034098  
323.500000	7.510725  
324.000000	7.894186  
324.500000	8.404150  
325.000000	8.747041  
325.500000	9.082937  
326.000000	9.571316  
326.500000	9.988417  
327.000000	10.192090 
327.500000	10.510732 
328.000000	10.906705 
328.500000	11.118173 
329.000000	11.438614 
329.500000	11.670726 
330.000000	11.928597 
330.500000	12.394825 
331.000000	12.879489 
331.500000	13.177328 
332.000000	13.437069 
332.500000	13.651081 
333.000000	13.625481 
333.500000	13.462195 
334.000000	13.090966 
334.500000	12.715128 
335.000000	12.450622 
335.500000	12.527021 
336.000000	12.810577 
336.500000	13.463569 
337.000000	14.428137 
337.500000	15.638853 
338.000000	16.781513 
338.500000	17.702241 
339.000000	18.485832 
339.500000	19.000192 
340.000000	19.505761 
340.500000	19.753507 
341.000000	19.785207 
341.500000	19.726062 
342.000000	19.820837 
342.500000	19.774911 
343.000000	19.556464 
343.500000	19.240401 
344.000000	18.800275 
344.500000	18.714173 
345.000000	18.728379 
345.500000	18.882917 
346.000000	19.228578 
346.500000	19.843062 
347.000000	20.796136 
347.500000	21.950476 
348.000000	22.940817 
348.500000	23.781787 
349.000000	24.848610 
349.500000	25.805791 
350.000000	26.835222 
350.500000	27.884497 
351.000000	28.492025 
351.500000	29.150509 
352.000000	29.924513 
352.500000	30.712972 
353.000000	31.504334 
353.500000	32.454852 
354.000000	33.251351 
354.500000	34.554166 
355.000000	36.264365 
355.500000	38.314013 
356.000000	40.734064 
356.500000	43.406955 
357.000000	46.092509 
357.500000	48.817624 
358.000000	51.348414 
358.500000	53.029315 
359.000000	54.254667 
359.500000	54.835629 
360.000000	55.264468 
360.500000	55.814348 
361.000000	56.255491 
361.500000	56.632629 
362.000000	57.431512 
362.500000	58.556048 
363.000000	59.525871 
363.500000	60.294634 
364.000000	60.512129 
364.500000	60.246319 
365.000000	59.800923 
365.500000	59.115240 
366.000000	58.032699 
366.500000	56.989206 
367.000000	56.235011 
367.500000	55.417603 
368.000000	54.666266 
368.500000	54.010787 
369.000000	53.116549 
369.500000	52.403416 
370.000000	51.878162 
370.500000	51.500928 
371.000000	51.280619 
371.500000	51.653000 
372.000000	52.202701 
372.500000	53.170129 
373.000000	54.494731 
373.500000	55.551529 
374.000000	56.419145 
374.500000	57.157557 
375.000000	57.738669 
375.500000	57.880263 
376.000000	57.997500 
376.500000	57.834301 
377.000000	57.779390 
377.500000	58.073753 
378.000000	58.279150 
378.500000	58.422928 
379.000000	58.392789 
379.500000	58.272793 
380.000000	57.779553 
380.500000	57.326574 
381.000000	56.665171 
381.500000	55.891879 
382.000000	55.232596 
382.500000	54.872034 
383.000000	54.855929 
383.500000	54.838533 
384.000000	54.824637 
384.500000	54.197628 
385.000000	53.507591 
385.500000	52.645750 
386.000000	51.647161 
386.500000	50.266039 
387.000000	48.561030 
387.500000	46.989204 
388.000000	45.437324 
388.500000	44.151540 
389.000000	42.375601 
389.500000	40.502975 
390.000000	38.578591 
390.500000	36.913972 
391.000000	35.138862 
391.500000	32.916313 
392.000000	30.500632 
392.500000	28.229152 
393.000000	26.402423 
393.500000	24.793756 
394.000000	23.567410 
394.500000	22.722657 
395.000000	22.609840 
395.500000	23.110769 
396.000000	23.745099 
396.500000	24.269818 
397.000000	24.650711 
397.500000	24.711537 
398.000000	24.290150 
398.500000	23.403920 
399.000000	22.128048 
399.500000	20.774418 
400.000000	19.465319 
400.500000	18.324952 
401.000000	17.494672 
401.500000	17.066885 
402.000000	16.960384 
402.500000	17.060877 
403.000000	17.203341 
403.500000	17.215616 
404.000000	17.114280 
404.500000	16.814454 
405.000000	16.119687 
405.500000	15.417078 
406.000000	14.620587 
406.500000	13.831622 
407.000000	13.212065 
407.500000	12.746035 
408.000000	12.439113 
408.500000	12.278098 
409.000000	12.273063 
409.500000	12.211108 
410.000000	12.204370 
410.500000	12.155531 
411.000000	12.020000 
411.500000	11.909601 
412.000000	11.835847 
412.500000	11.910763 
413.000000	12.059120 
413.500000	12.247073 
414.000000	12.435317 
414.500000	12.661339 
415.000000	12.843661 
415.500000	13.004791 
416.000000	13.216178 
416.500000	13.410671 
417.000000	13.785412 
417.500000	14.407373 
418.000000	15.082066 
418.500000	15.835870 
419.000000	16.538784 
419.500000	17.057979 
420.000000	17.502492 
420.500000	17.870829 
421.000000	17.993760 
421.500000	17.960796 
422.000000	18.042949 
422.500000	18.134778 
423.000000	18.379217 
423.500000	18.742556 
424.000000	19.125921 
424.500000	19.677290 
425.000000	20.553671 
425.500000	21.547939 
426.000000	22.524847 
426.500000	23.370166 
427.000000	23.976790 
427.500000	24.569865 
428.000000	24.934480 
428.500000	25.024728 
429.000000	25.032403 
429.500000	25.247127 
430.000000	25.785517 
430.500000	26.839361 
431.000000	28.278898 
431.500000	29.965650 
432.000000	32.053944 
432.500000	34.688509 
433.000000	37.578006 
433.500000	40.396442 
434.000000	43.109459 
434.500000	45.661652 
435.000000	48.015407 
435.500000	50.112804 
436.000000	51.615286 
436.500000	52.418823 
437.000000	53.011133 
437.500000	53.264537 
438.000000	53.258302 
438.500000	53.047925 
439.000000	52.825191 
439.500000	52.660569 
440.000000	53.126388 
440.500000	53.940193 
441.000000	54.787632 
441.500000	56.062795 
442.000000	57.411304 
442.500000	59.055497 
443.000000	60.734019 
443.500000	62.233148 
444.000000	63.238534 
444.500000	64.343707 

