PE FL                   SPECTRUM    ASCII       PEDS        1.60        
  -1
PPA07D~1
23/10/10
16:11:47.00
23/10/10
16:11:47.00


444.500000
1









LS55
15.00
5.00
5.00
SCAN
1
20
100
100
0
500
0
2
0
1
7
ON
500 450 
1 0 0
#HDR
-1
-1
#GR
NM

0.00002384185791015625
0.0
250.000000
0.500000
390
8
4.223123
-5.000000
#DATA
250.000000	-5.000000 
250.500000	-3.448936 
251.000000	-2.332987 
251.500000	-1.658840 
252.000000	-1.279258 
252.500000	-1.629707 
253.000000	-2.029379 
253.500000	-2.644181 
254.000000	-3.337801 
254.500000	-3.803508 
255.000000	-4.217235 
255.500000	-4.301530 
256.000000	-4.303533 
256.500000	-3.903802 
257.000000	-3.695662 
257.500000	-3.231721 
258.000000	-2.490788 
258.500000	-1.782438 
259.000000	-1.472838 
259.500000	-1.576783 
260.000000	-1.645219 
260.500000	-1.773235 
261.000000	-1.804605 
261.500000	-2.184107 
262.000000	-2.505244 
262.500000	-2.656689 
263.000000	-2.565416 
263.500000	-2.794067 
264.000000	-3.244676 
264.500000	-3.800215 
265.000000	-4.487178 
265.500000	-4.824811 
266.000000	-4.929926 
266.500000	-4.484710 
267.000000	-3.376859 
267.500000	-1.727568 
268.000000	-0.285064 
268.500000	1.078522  
269.000000	2.144890  
269.500000	2.567600  
270.000000	2.319281  
270.500000	1.622288  
271.000000	0.775436  
271.500000	-0.049008 
272.000000	-0.661033 
272.500000	-1.183467 
273.000000	-1.374198 
273.500000	-1.131962 
274.000000	-0.757544 
274.500000	-0.531728 
275.000000	-0.370499 
275.500000	-0.447090 
276.000000	-0.638499 
276.500000	-0.959590 
277.000000	-1.472684 
277.500000	-1.913127 
278.000000	-1.978939 
278.500000	-1.722672 
279.000000	-1.250437 
279.500000	-0.331281 
280.000000	0.461164  
280.500000	1.211592  
281.000000	1.448656  
281.500000	1.153569  
282.000000	0.579162  
282.500000	-0.221892 
283.000000	-1.149258 
283.500000	-2.058734 
284.000000	-2.396929 
284.500000	-2.888639 
285.000000	-2.742356 
285.500000	-2.450185 
286.000000	-1.930303 
286.500000	-1.135417 
287.000000	-0.468957 
287.500000	0.132112  
288.000000	0.521366  
288.500000	0.851402  
289.000000	0.374479  
289.500000	0.045975  
290.000000	-0.480943 
290.500000	-0.965808 
291.000000	-1.242739 
291.500000	-1.704150 
292.000000	-1.988107 
292.500000	-2.187757 
293.000000	-2.185836 
293.500000	-2.545096 
294.000000	-2.623629 
294.500000	-2.609460 
295.000000	-2.405048 
295.500000	-2.105359 
296.000000	-1.912029 
296.500000	-1.597735 
297.000000	-1.377939 
297.500000	-1.324369 
298.000000	-1.695826 
298.500000	-2.187434 
299.000000	-2.702661 
299.500000	-2.920465 
300.000000	-3.016954 
300.500000	-2.989780 
301.000000	-2.752724 
301.500000	-2.453874 
302.000000	-2.074466 
302.500000	-1.869257 
303.000000	-1.808140 
303.500000	-1.883922 
304.000000	-1.852339 
304.500000	-2.036556 
305.000000	-1.994404 
305.500000	-2.070927 
306.000000	-2.096494 
306.500000	-1.907467 
307.000000	-1.666272 
307.500000	-1.563732 
308.000000	-1.500660 
308.500000	-1.157281 
309.000000	-0.984105 
309.500000	-0.687023 
310.000000	-0.734376 
310.500000	-0.910610 
311.000000	-1.066932 
311.500000	-1.181001 
312.000000	-1.335805 
312.500000	-1.524774 
313.000000	-1.420950 
313.500000	-1.129932 
314.000000	-0.584623 
314.500000	-0.295173 
315.000000	-0.078701 
315.500000	0.277930  
316.000000	0.642832  
316.500000	1.073118  
317.000000	1.397379  
317.500000	1.594166  
318.000000	1.979429  
318.500000	2.414380  
319.000000	2.558935  
319.500000	2.519159  
320.000000	2.605763  
320.500000	2.543440  
321.000000	2.543218  
321.500000	2.557807  
322.000000	2.415824  
322.500000	2.500742  
323.000000	2.642079  
323.500000	2.683425  
324.000000	2.606619  
324.500000	2.626280  
325.000000	2.742880  
325.500000	2.910782  
326.000000	3.077970  
326.500000	3.173480  
327.000000	3.329107  
327.500000	3.395004  
328.000000	3.268284  
328.500000	3.051507  
329.000000	2.792976  
329.500000	2.640843  
330.000000	2.615442  
330.500000	2.641708  
331.000000	2.692796  
331.500000	2.683760  
332.000000	2.574111  
332.500000	2.388720  
333.000000	2.154896  
333.500000	1.834029  
334.000000	1.544021  
334.500000	1.263382  
335.000000	1.060239  
335.500000	1.098279  
336.000000	1.227683  
336.500000	1.317924  
337.000000	1.516162  
337.500000	1.755261  
338.000000	1.907085  
338.500000	2.098889  
339.000000	2.306285  
339.500000	2.355102  
340.000000	2.402192  
340.500000	2.510056  
341.000000	2.522205  
341.500000	2.634480  
342.000000	2.784086  
342.500000	2.872455  
343.000000	2.980715  
343.500000	3.086869  
344.000000	3.081659  
344.500000	3.063571  
345.000000	3.076823  
345.500000	3.047874  
346.000000	3.063569  
346.500000	3.030409  
347.000000	2.958759  
347.500000	2.941753  
348.000000	2.849093  
348.500000	2.694242  
349.000000	2.639856  
349.500000	2.572735  
350.000000	2.486800  
350.500000	2.402191  
351.000000	2.331339  
351.500000	2.334683  
352.000000	2.454090  
352.500000	2.579491  
353.000000	2.639542  
353.500000	2.813869  
354.000000	3.058665  
354.500000	3.343627  
355.000000	3.541098  
355.500000	3.697258  
356.000000	3.759838  
356.500000	3.852225  
357.000000	3.914753  
357.500000	3.858047  
358.000000	3.781108  
358.500000	3.698509  
359.000000	3.699616  
359.500000	3.650933  
360.000000	3.646069  
360.500000	3.615526  
361.000000	3.660329  
361.500000	3.723365  
362.000000	3.808616  
362.500000	3.774773  
363.000000	3.603495  
363.500000	3.450365  
364.000000	3.253042  
364.500000	3.069595  
365.000000	2.844860  
365.500000	2.766867  
366.000000	2.779824  
366.500000	2.985314  
367.000000	3.258427  
367.500000	3.545048  
368.000000	3.868990  
368.500000	4.113131  
369.000000	4.223123  
369.500000	4.153824  
370.000000	3.972268  
370.500000	3.767341  
371.000000	3.641655  
371.500000	3.487286  
372.000000	3.390324  
372.500000	3.379826  
373.000000	3.500675  
373.500000	3.590724  
374.000000	3.621211  
374.500000	3.582603  
375.000000	3.511212  
375.500000	3.522388  
376.000000	3.452861  
376.500000	3.363034  
377.000000	3.303354  
377.500000	3.308584  
378.000000	3.317290  
378.500000	3.292605  
379.000000	3.213492  
379.500000	3.104389  
380.000000	3.115783  
380.500000	3.153130  
381.000000	3.234640  
381.500000	3.438678  
382.000000	3.670818  
382.500000	3.927750  
383.000000	4.142636  
383.500000	4.166985  
384.000000	4.034359  
384.500000	3.836823  
385.000000	3.552761  
385.500000	3.224164  
386.000000	3.024065  
386.500000	2.889120  
387.000000	2.954875  
387.500000	3.153994  
388.000000	3.307281  
388.500000	3.436256  
389.000000	3.533861  
389.500000	3.569682  
390.000000	3.561008  
390.500000	3.539288  
391.000000	3.436629  
391.500000	3.416542  
392.000000	3.475530  
392.500000	3.537406  
393.000000	3.601531  
393.500000	3.660192  
394.000000	3.723938  
394.500000	3.815189  
395.000000	3.925135  
395.500000	3.949749  
396.000000	3.982060  
396.500000	3.974981  
397.000000	3.976985  
397.500000	3.955844  
398.000000	3.874112  
398.500000	3.761569  
399.000000	3.656843  
399.500000	3.574094  
400.000000	3.484191  
400.500000	3.440221  
401.000000	3.357995  
401.500000	3.278279  
402.000000	3.230211  
402.500000	3.155323  
403.000000	3.066649  
403.500000	3.016008  
404.000000	2.976822  
404.500000	2.947990  
405.000000	2.991300  
405.500000	3.041556  
406.000000	3.083494  
406.500000	3.131378  
407.000000	3.173093  
407.500000	3.208346  
408.000000	3.262410  
408.500000	3.288820  
409.000000	3.264175  
409.500000	3.252374  
410.000000	3.251030  
410.500000	3.221042  
411.000000	3.155945  
411.500000	3.095023  
412.000000	3.028928  
412.500000	2.994880  
413.000000	2.998316  
413.500000	3.009672  
414.000000	3.008025  
414.500000	3.026240  
415.000000	3.057856  
415.500000	3.045106  
416.000000	2.998522  
416.500000	2.902308  
417.000000	2.793325  
417.500000	2.681854  
418.000000	2.592083  
418.500000	2.492567  
419.000000	2.429601  
419.500000	2.409599  
420.000000	2.424630  
420.500000	2.463602  
421.000000	2.488757  
421.500000	2.504678  
422.000000	2.464825  
422.500000	2.413768  
423.000000	2.339837  
423.500000	2.263607  
424.000000	2.195960  
424.500000	2.160582  
425.000000	2.150473  
425.500000	2.157020  
426.000000	2.198660  
426.500000	2.212592  
427.000000	2.201366  
427.500000	2.198543  
428.000000	2.182601  
428.500000	2.139995  
429.000000	2.102841  
429.500000	2.081731  
430.000000	2.043650  
430.500000	2.034117  
431.000000	2.035736  
431.500000	2.018125  
432.000000	2.035125  
432.500000	2.033580  
433.000000	2.014315  
433.500000	2.000492  
434.000000	2.002266  
434.500000	1.965496  
435.000000	1.940937  
435.500000	1.950026  
436.000000	1.954376  
436.500000	1.991753  
437.000000	2.022360  
437.500000	2.042239  
438.000000	2.047424  
438.500000	2.049028  
439.000000	2.006658  
439.500000	1.941037  
440.000000	1.893344  
440.500000	1.847202  
441.000000	1.814402  
441.500000	1.786452  
442.000000	1.785192  
442.500000	1.809120  
443.000000	1.850573  
443.500000	1.886447  
444.000000	1.892099  
444.500000	1.914592  

