PE FL                   SPECTRUM    ASCII       PEDS        1.60        
  -1
PP888B~1
23/10/10
15:18:43.00
23/10/10
15:18:43.00


444.500000
1









LS55
40.00
5.00
5.00
SCAN
1
20
100
100
0
500
0
2
0
1
7
ON
500 450 
1 0 0
#HDR
-1
-1
#GR
NM

0.00002384185791015625
0.0
250.000000
0.500000
390
8
5.138519
-4.999999
#DATA
250.000000	-4.999999 
250.500000	-4.578412 
251.000000	-4.311859 
251.500000	-3.896434 
252.000000	-3.383699 
252.500000	-2.650648 
253.000000	-2.092486 
253.500000	-1.692453 
254.000000	-1.590036 
254.500000	-1.607658 
255.000000	-1.844859 
255.500000	-2.006212 
256.000000	-2.086936 
256.500000	-1.962144 
257.000000	-1.644649 
257.500000	-1.160058 
258.000000	-0.643708 
258.500000	-0.206499 
259.000000	-0.008293 
259.500000	-0.290915 
260.000000	-0.768002 
260.500000	-1.385364 
261.000000	-2.205399 
261.500000	-3.205668 
262.000000	-3.991416 
262.500000	-4.499099 
263.000000	-4.400240 
263.500000	-4.107917 
264.000000	-3.839896 
264.500000	-3.317457 
265.000000	-2.461132 
265.500000	-1.678680 
266.000000	-1.382338 
266.500000	-1.464979 
267.000000	-1.527880 
267.500000	-1.487400 
268.000000	-1.629690 
268.500000	-1.991373 
269.000000	-2.385926 
269.500000	-2.605112 
270.000000	-2.589362 
270.500000	-2.653267 
271.000000	-2.960857 
271.500000	-3.257029 
272.000000	-3.273959 
272.500000	-3.001605 
273.000000	-2.569360 
273.500000	-2.116465 
274.000000	-1.546129 
274.500000	-0.987855 
275.000000	-0.224912 
275.500000	0.377982  
276.000000	0.541153  
276.500000	0.318084  
277.000000	-0.086492 
277.500000	-0.407434 
278.000000	-0.739052 
278.500000	-1.117039 
279.000000	-1.859317 
279.500000	-2.408112 
280.000000	-2.257770 
280.500000	-1.883931 
281.000000	-1.425801 
281.500000	-1.002359 
282.000000	-0.460559 
282.500000	0.241131  
283.000000	0.970719  
283.500000	1.345505  
284.000000	1.233730  
284.500000	1.060657  
285.000000	0.832516  
285.500000	0.505809  
286.000000	-0.015554 
286.500000	-0.519768 
287.000000	-0.762814 
287.500000	-0.937909 
288.000000	-1.023284 
288.500000	-1.188475 
289.000000	-1.421179 
289.500000	-1.532071 
290.000000	-1.730841 
290.500000	-1.760173 
291.000000	-1.555596 
291.500000	-1.070167 
292.000000	-0.687107 
292.500000	-0.433256 
293.000000	0.081796  
293.500000	0.496638  
294.000000	0.813356  
294.500000	0.960414  
295.000000	1.284929  
295.500000	1.674605  
296.000000	2.364749  
296.500000	3.001776  
297.000000	3.698732  
297.500000	4.480607  
298.000000	5.050506  
298.500000	5.138519  
299.000000	4.597226  
299.500000	3.815234  
300.000000	2.899118  
300.500000	1.993636  
301.000000	0.702616  
301.500000	-0.286561 
302.000000	-1.012041 
302.500000	-1.153775 
303.000000	-1.073302 
303.500000	-0.540929 
304.000000	0.272242  
304.500000	1.487175  
305.000000	2.955469  
305.500000	3.847703  
306.000000	4.577461  
306.500000	4.718291  
307.000000	4.746275  
307.500000	4.441675  
308.000000	3.994260  
308.500000	3.214465  
309.000000	2.580439  
309.500000	2.387326  
310.000000	2.426417  
310.500000	2.630490  
311.000000	2.630148  
311.500000	2.838420  
312.000000	3.024604  
312.500000	3.194430  
313.000000	3.119248  
313.500000	2.820555  
314.000000	2.458985  
314.500000	2.384491  
315.000000	2.320898  
315.500000	2.079738  
316.000000	1.905588  
316.500000	1.821720  
317.000000	1.922158  
317.500000	2.086599  
318.000000	2.098436  
318.500000	1.863630  
319.000000	1.826825  
319.500000	1.834931  
320.000000	1.822757  
320.500000	1.960408  
321.000000	1.930082  
321.500000	1.897559  
322.000000	1.846950  
322.500000	1.833644  
323.000000	1.816766  
323.500000	1.783336  
324.000000	1.693360  
324.500000	1.473264  
325.000000	1.573323  
325.500000	1.668780  
326.000000	1.702068  
326.500000	1.566459  
327.000000	1.424958  
327.500000	1.456224  
328.000000	1.526822  
328.500000	1.590118  
329.000000	1.467777  
329.500000	1.425281  
330.000000	1.457517  
330.500000	1.405521  
331.000000	1.195175  
331.500000	0.957416  
332.000000	0.759804  
332.500000	0.674183  
333.000000	0.787721  
333.500000	0.835205  
334.000000	1.044750  
334.500000	1.319343  
335.000000	1.614702  
335.500000	1.809800  
336.000000	1.897160  
336.500000	1.840087  
337.000000	1.802479  
337.500000	1.727055  
338.000000	1.468907  
338.500000	1.324745  
339.000000	1.253533  
339.500000	1.384345  
340.000000	1.512556  
340.500000	1.783921  
341.000000	2.026013  
341.500000	2.377032  
342.000000	2.709075  
342.500000	2.787492  
343.000000	2.750689  
343.500000	2.580484  
344.000000	2.480574  
344.500000	2.343749  
345.000000	2.283600  
345.500000	2.237001  
346.000000	2.287142  
346.500000	2.351398  
347.000000	2.436246  
347.500000	2.555886  
348.000000	2.691348  
348.500000	2.796860  
349.000000	2.844454  
349.500000	2.960875  
350.000000	2.995488  
350.500000	2.994951  
351.000000	2.904317  
351.500000	2.758298  
352.000000	2.571296  
352.500000	2.526777  
353.000000	2.560160  
353.500000	2.679454  
354.000000	2.910150  
354.500000	3.136556  
355.000000	3.328684  
355.500000	3.391540  
356.000000	3.343765  
356.500000	3.111652  
357.000000	2.871066  
357.500000	2.640578  
358.000000	2.373536  
358.500000	2.199891  
359.000000	2.108042  
359.500000	2.029870  
360.000000	2.054023  
360.500000	2.140441  
361.000000	2.226617  
361.500000	2.334962  
362.000000	2.418003  
362.500000	2.397085  
363.000000	2.268067  
363.500000	2.155002  
364.000000	1.951587  
364.500000	1.803645  
365.000000	1.639071  
365.500000	1.589590  
366.000000	1.634842  
366.500000	1.818022  
367.000000	2.043882  
367.500000	2.207105  
368.000000	2.318344  
368.500000	2.339515  
369.000000	2.414062  
369.500000	2.344406  
370.000000	2.215742  
370.500000	2.031078  
371.000000	1.890438  
371.500000	1.838230  
372.000000	1.786085  
372.500000	1.660748  
373.000000	1.501408  
373.500000	1.475227  
374.000000	1.449809  
374.500000	1.429832  
375.000000	1.433327  
375.500000	1.415716  
376.000000	1.425624  
376.500000	1.479485  
377.000000	1.498797  
377.500000	1.371637  
378.000000	1.276379  
378.500000	1.114463  
379.000000	0.886201  
379.500000	0.715754  
380.000000	0.607903  
380.500000	0.529181  
381.000000	0.597570  
381.500000	0.840544  
382.000000	1.053943  
382.500000	1.312222  
383.000000	1.552186  
383.500000	1.644855  
384.000000	1.683483  
384.500000	1.704968  
385.000000	1.621105  
385.500000	1.500923  
386.000000	1.439601  
386.500000	1.334268  
387.000000	1.277661  
387.500000	1.272380  
388.000000	1.230758  
388.500000	1.219236  
389.000000	1.282534  
389.500000	1.324349  
390.000000	1.323039  
390.500000	1.328922  
391.000000	1.297401  
391.500000	1.282432  
392.000000	1.234310  
392.500000	1.187235  
393.000000	1.214282  
393.500000	1.315351  
394.000000	1.480015  
394.500000	1.626689  
395.000000	1.745773  
395.500000	1.791704  
396.000000	1.774291  
396.500000	1.598137  
397.000000	1.378653  
397.500000	1.159885  
398.000000	0.965400  
398.500000	0.847095  
399.000000	0.811452  
399.500000	0.841180  
400.000000	0.917321  
400.500000	1.002953  
401.000000	1.022818  
401.500000	1.028209  
402.000000	1.012355  
402.500000	0.950789  
403.000000	0.846230  
403.500000	0.758475  
404.000000	0.720023  
404.500000	0.713627  
405.000000	0.704382  
405.500000	0.726139  
406.000000	0.746220  
406.500000	0.786813  
407.000000	0.844104  
407.500000	0.934875  
408.000000	1.025016  
408.500000	1.155292  
409.000000	1.299348  
409.500000	1.403475  
410.000000	1.494330  
410.500000	1.541508  
411.000000	1.526745  
411.500000	1.452540  
412.000000	1.378446  
412.500000	1.265549  
413.000000	1.181405  
413.500000	1.133789  
414.000000	1.101242  
414.500000	1.084175  
415.000000	1.083302  
415.500000	1.069841  
416.000000	1.030254  
416.500000	1.001200  
417.000000	0.937784  
417.500000	0.881034  
418.000000	0.822610  
418.500000	0.763684  
419.000000	0.687954  
419.500000	0.635406  
420.000000	0.612928  
420.500000	0.617755  
421.000000	0.655873  
421.500000	0.681084  
422.000000	0.721824  
422.500000	0.748401  
423.000000	0.779191  
423.500000	0.785177  
424.000000	0.767681  
424.500000	0.738458  
425.000000	0.698995  
425.500000	0.664767  
426.000000	0.623602  
426.500000	0.604724  
427.000000	0.589100  
427.500000	0.590265  
428.000000	0.586170  
428.500000	0.600355  
429.000000	0.621727  
429.500000	0.652998  
430.000000	0.679896  
430.500000	0.696493  
431.000000	0.707311  
431.500000	0.697059  
432.000000	0.677020  
432.500000	0.647435  
433.000000	0.638425  
433.500000	0.632563  
434.000000	0.623338  
434.500000	0.601231  
435.000000	0.571001  
435.500000	0.541630  
436.000000	0.506776  
436.500000	0.474566  
437.000000	0.448661  
437.500000	0.449201  
438.000000	0.481097  
438.500000	0.518224  
439.000000	0.551121  
439.500000	0.573080  
440.000000	0.600614  
440.500000	0.604488  
441.000000	0.593368  
441.500000	0.583437  
442.000000	0.569963  
442.500000	0.593946  
443.000000	0.638201  
443.500000	0.680083  
444.000000	0.723129  
444.500000	0.756356  

