PE FL                   SPECTRUM    ASCII       PEDS        1.60        
  -1
PP886B~1
23/10/10
15:17:22.00
23/10/10
15:17:22.00


444.500000
1









LS55
30.00
5.00
5.00
SCAN
1
20
100
100
0
500
0
2
0
1
7
ON
500 450 
1 0 0
#HDR
-1
-1
#GR
NM

0.00002384185791015625
0.0
250.000000
0.500000
390
8
6.146663
-4.249649
#DATA
250.000000	2.944999  
250.500000	0.782035  
251.000000	-1.343722 
251.500000	-2.850571 
252.000000	-3.861827 
252.500000	-4.238310 
253.000000	-4.141034 
253.500000	-4.076552 
254.000000	-3.884189 
254.500000	-3.860346 
255.000000	-3.361852 
255.500000	-2.672831 
256.000000	-1.696053 
256.500000	-0.856019 
257.000000	-0.063872 
257.500000	0.716411  
258.000000	0.924045  
258.500000	0.763043  
259.000000	-0.252789 
259.500000	-1.230337 
260.000000	-2.298696 
260.500000	-2.903404 
261.000000	-3.236076 
261.500000	-3.406119 
262.000000	-3.106694 
262.500000	-2.643688 
263.000000	-2.139293 
263.500000	-2.080365 
264.000000	-1.899765 
264.500000	-2.049634 
265.000000	-2.143195 
265.500000	-2.222891 
266.000000	-2.605321 
266.500000	-2.825980 
267.000000	-2.638148 
267.500000	-2.682474 
268.000000	-2.613541 
268.500000	-2.418785 
269.000000	-2.211949 
269.500000	-1.774551 
270.000000	-1.234062 
270.500000	-0.955197 
271.000000	-0.755400 
271.500000	-0.422315 
272.000000	-0.436180 
272.500000	-0.624624 
273.000000	-1.242144 
273.500000	-2.003142 
274.000000	-2.801969 
274.500000	-3.374183 
275.000000	-3.855867 
275.500000	-4.173763 
276.000000	-4.179965 
276.500000	-4.249649 
277.000000	-4.081039 
277.500000	-3.945615 
278.000000	-3.726028 
278.500000	-3.650734 
279.000000	-3.454810 
279.500000	-3.298678 
280.000000	-3.128804 
280.500000	-2.888233 
281.000000	-2.636741 
281.500000	-2.336968 
282.000000	-2.083703 
282.500000	-1.561106 
283.000000	-0.922684 
283.500000	0.023857  
284.000000	0.839250  
284.500000	1.418293  
285.000000	1.963355  
285.500000	2.495757  
286.000000	2.820164  
286.500000	2.780605  
287.000000	2.478960  
287.500000	2.056431  
288.000000	1.836324  
288.500000	1.280829  
289.000000	0.246308  
289.500000	-0.795327 
290.000000	-1.349952 
290.500000	-1.599171 
291.000000	-1.436497 
291.500000	-0.945485 
292.000000	-0.313570 
292.500000	0.681302  
293.000000	1.697451  
293.500000	2.097949  
294.000000	2.015740  
294.500000	2.035709  
295.000000	1.890866  
295.500000	2.120064  
296.000000	2.513010  
296.500000	2.850681  
297.000000	3.196502  
297.500000	3.734136  
298.000000	3.802639  
298.500000	3.174047  
299.000000	2.183221  
299.500000	1.019246  
300.000000	-0.042891 
300.500000	-0.633740 
301.000000	-0.923196 
301.500000	-0.918293 
302.000000	-0.319736 
302.500000	0.401286  
303.000000	1.108240  
303.500000	1.579280  
304.000000	1.875534  
304.500000	1.949603  
305.000000	2.023573  
305.500000	2.156883  
306.000000	2.338203  
306.500000	2.571238  
307.000000	2.539203  
307.500000	2.612816  
308.000000	2.559864  
308.500000	2.427159  
309.000000	2.313530  
309.500000	2.394787  
310.000000	2.812957  
310.500000	3.605824  
311.000000	4.325367  
311.500000	4.678297  
312.000000	4.982610  
312.500000	5.266492  
313.000000	5.033066  
313.500000	4.748954  
314.000000	4.546226  
314.500000	4.457225  
315.000000	4.880828  
315.500000	5.471939  
316.000000	5.828746  
316.500000	6.078351  
317.000000	6.146663  
317.500000	5.852229  
318.000000	5.408760  
318.500000	5.044241  
319.000000	4.498965  
319.500000	4.353724  
320.000000	4.567030  
320.500000	4.915112  
321.000000	5.337990  
321.500000	5.611871  
322.000000	5.667836  
322.500000	5.517239  
323.000000	5.366613  
323.500000	4.933247  
324.000000	4.341922  
324.500000	3.777957  
325.000000	3.427383  
325.500000	3.236937  
326.000000	3.111454  
326.500000	2.924989  
327.000000	2.654172  
327.500000	2.428167  
328.000000	2.235012  
328.500000	1.822249  
329.000000	1.289541  
329.500000	0.864579  
330.000000	0.486929  
330.500000	0.355721  
331.000000	0.356416  
331.500000	0.343943  
332.000000	0.453421  
332.500000	0.718579  
333.000000	0.894705  
333.500000	0.960927  
334.000000	0.943179  
334.500000	0.859011  
335.000000	0.670017  
335.500000	0.523489  
336.000000	0.383929  
336.500000	0.287713  
337.000000	0.156191  
337.500000	0.054394  
338.000000	-0.017622 
338.500000	-0.171677 
339.000000	-0.373763 
339.500000	-0.640506 
340.000000	-0.839925 
340.500000	-0.973917 
341.000000	-0.991853 
341.500000	-1.058474 
342.000000	-0.942829 
342.500000	-0.666521 
343.000000	-0.309047 
343.500000	0.029514  
344.000000	0.349978  
344.500000	0.612500  
345.000000	0.847901  
345.500000	1.100694  
346.000000	1.207503  
346.500000	1.229759  
347.000000	1.272233  
347.500000	1.228451  
348.000000	1.148907  
348.500000	1.040971  
349.000000	0.941455  
349.500000	0.799976  
350.000000	0.793319  
350.500000	0.839799  
351.000000	0.883455  
351.500000	1.047585  
352.000000	1.122328  
352.500000	1.222616  
353.000000	1.283588  
353.500000	1.315763  
354.000000	1.153149  
354.500000	0.980380  
355.000000	0.812873  
355.500000	0.663984  
356.000000	0.642506  
356.500000	0.655440  
357.000000	0.770538  
357.500000	0.822767  
358.000000	0.929911  
358.500000	0.881112  
359.000000	0.738685  
359.500000	0.466792  
360.000000	0.119530  
360.500000	-0.230252 
361.000000	-0.461710 
361.500000	-0.510011 
362.000000	-0.415263 
362.500000	-0.121534 
363.000000	0.271037  
363.500000	0.683841  
364.000000	1.022751  
364.500000	1.239781  
365.000000	1.303506  
365.500000	1.264251  
366.000000	1.160082  
366.500000	1.038891  
367.000000	0.986470  
367.500000	0.956537  
368.000000	0.957268  
368.500000	0.967003  
369.000000	0.955799  
369.500000	0.901138  
370.000000	0.846781  
370.500000	0.711397  
371.000000	0.539520  
371.500000	0.447375  
372.000000	0.399688  
372.500000	0.430650  
373.000000	0.530333  
373.500000	0.661221  
374.000000	0.786494  
374.500000	0.906519  
375.000000	1.009901  
375.500000	1.085602  
376.000000	1.151271  
376.500000	1.177457  
377.000000	1.214846  
377.500000	1.209483  
378.000000	1.189565  
378.500000	1.151647  
379.000000	1.059844  
379.500000	0.946749  
380.000000	0.900853  
380.500000	0.904314  
381.000000	0.925175  
381.500000	0.993736  
382.000000	1.016309  
382.500000	1.047273  
383.000000	1.083274  
383.500000	1.078760  
384.000000	0.986950  
384.500000	0.872454  
385.000000	0.810969  
385.500000	0.812678  
386.000000	0.854120  
386.500000	0.854110  
387.000000	0.844056  
387.500000	0.886957  
388.000000	0.982430  
388.500000	1.039779  
389.000000	1.030230  
389.500000	1.032738  
390.000000	1.053149  
390.500000	1.046624  
391.000000	1.016016  
391.500000	0.955703  
392.000000	0.926207  
392.500000	0.944453  
393.000000	0.947200  
393.500000	0.947084  
394.000000	0.971819  
394.500000	1.003249  
395.000000	1.013347  
395.500000	0.987673  
396.000000	0.962214  
396.500000	0.995671  
397.000000	1.067923  
397.500000	1.116984  
398.000000	1.127982  
398.500000	1.160121  
399.000000	1.195915  
399.500000	1.174008  
400.000000	1.040773  
400.500000	0.869887  
401.000000	0.764646  
401.500000	0.699205  
402.000000	0.659006  
402.500000	0.603384  
403.000000	0.625167  
403.500000	0.719948  
404.000000	0.816700  
404.500000	0.851908  
405.000000	0.861636  
405.500000	0.887765  
406.000000	0.907486  
406.500000	0.926228  
407.000000	0.864793  
407.500000	0.845181  
408.000000	0.913075  
408.500000	0.987872  
409.000000	0.992788  
409.500000	0.976445  
410.000000	0.947889  
410.500000	0.910454  
411.000000	0.868725  
411.500000	0.785218  
412.000000	0.717972  
412.500000	0.754325  
413.000000	0.874316  
413.500000	0.964511  
414.000000	1.058096  
414.500000	1.124603  
415.000000	1.121357  
415.500000	1.078357  
416.000000	0.988583  
416.500000	0.825697  
417.000000	0.737221  
417.500000	0.735944  
418.000000	0.769856  
418.500000	0.811812  
419.000000	0.873201  
419.500000	0.907610  
420.000000	0.900269  
420.500000	0.856939  
421.000000	0.733124  
421.500000	0.633210  
422.000000	0.569770  
422.500000	0.546498  
423.000000	0.527601  
423.500000	0.566603  
424.000000	0.656083  
424.500000	0.765094  
425.000000	0.849969  
425.500000	0.887522  
426.000000	0.907814  
426.500000	0.931063  
427.000000	0.956835  
427.500000	0.944056  
428.000000	0.922172  
428.500000	0.916383  
429.000000	0.914496  
429.500000	0.886580  
430.000000	0.842772  
430.500000	0.781996  
431.000000	0.733710  
431.500000	0.713793  
432.000000	0.696045  
432.500000	0.694046  
433.000000	0.715197  
433.500000	0.756991  
434.000000	0.784770  
434.500000	0.786345  
435.000000	0.778377  
435.500000	0.770582  
436.000000	0.786870  
436.500000	0.797045  
437.000000	0.814355  
437.500000	0.838150  
438.000000	0.877629  
438.500000	0.919995  
439.000000	0.934899  
439.500000	0.946786  
440.000000	0.954659  
440.500000	0.972835  
441.000000	0.990522  
441.500000	1.006704  
442.000000	0.986894  
442.500000	0.971310  
443.000000	0.970064  
443.500000	0.949407  
444.000000	0.915931  
444.500000	0.868093  

