PE FL                   SPECTRUM    ASCII       PEDS        1.60        
  -1
PP889B~1
23/10/10
15:19:23.00
23/10/10
15:19:23.00


444.500000
1









LS55
45.00
5.00
5.00
SCAN
1
20
100
100
0
500
0
2
0
1
7
ON
500 450 
1 0 0
#HDR
-1
-1
#GR
NM

0.00002384185791015625
0.0
250.000000
0.500000
390
8
11.366000
-3.616979
#DATA
250.000000	11.366000 
250.500000	6.950238  
251.000000	3.043468  
251.500000	0.728967  
252.000000	-0.739902 
252.500000	-1.527319 
253.000000	-1.198787 
253.500000	-0.378625 
254.000000	-0.298905 
254.500000	-0.707319 
255.000000	-1.022066 
255.500000	-1.072424 
256.000000	-0.795749 
256.500000	-0.781497 
257.000000	-0.967745 
257.500000	-0.993756 
258.000000	-0.778918 
258.500000	-0.969255 
259.000000	-1.685795 
259.500000	-2.508031 
260.000000	-2.993358 
260.500000	-2.953792 
261.000000	-2.814115 
261.500000	-2.596369 
262.000000	-2.237755 
262.500000	-1.733601 
263.000000	-0.876861 
263.500000	-0.227127 
264.000000	-0.180811 
264.500000	-0.505615 
265.000000	-0.829847 
265.500000	-1.277785 
266.000000	-1.514811 
266.500000	-1.596447 
267.000000	-1.526350 
267.500000	-1.212526 
268.000000	-0.659446 
268.500000	-0.522544 
269.000000	-0.689823 
269.500000	-0.810999 
270.000000	-1.236762 
270.500000	-1.495545 
271.000000	-1.462849 
271.500000	-1.205809 
272.000000	-0.761175 
272.500000	-0.467901 
273.000000	-0.512094 
273.500000	-0.806118 
274.000000	-1.156320 
274.500000	-2.030565 
275.000000	-2.781973 
275.500000	-3.346331 
276.000000	-3.616979 
276.500000	-3.441931 
277.000000	-3.463370 
277.500000	-3.544104 
278.000000	-3.403100 
278.500000	-3.134024 
279.000000	-3.043279 
279.500000	-3.019411 
280.000000	-2.825965 
280.500000	-2.405250 
281.000000	-1.497027 
281.500000	-0.945134 
282.000000	-0.668601 
282.500000	-0.146039 
283.000000	0.378850  
283.500000	0.847225  
284.000000	1.325310  
284.500000	1.785525  
285.000000	2.191822  
285.500000	2.734874  
286.000000	2.888899  
286.500000	2.464735  
287.000000	2.170583  
287.500000	1.623555  
288.000000	0.920772  
288.500000	0.144913  
289.000000	-0.457177 
289.500000	-0.365452 
290.000000	0.134114  
290.500000	0.572679  
291.000000	0.892383  
291.500000	1.761101  
292.000000	2.812546  
292.500000	3.725272  
293.000000	4.177123  
293.500000	4.317485  
294.000000	4.819237  
294.500000	5.666639  
295.000000	5.879033  
295.500000	5.492413  
296.000000	5.062300  
296.500000	4.742168  
297.000000	4.344544  
297.500000	3.686384  
298.000000	2.632426  
298.500000	1.691980  
299.000000	1.608835  
299.500000	1.716836  
300.000000	1.843405  
300.500000	2.388536  
301.000000	3.221506  
301.500000	3.788184  
302.000000	4.417133  
302.500000	4.710332  
303.000000	4.506570  
303.500000	4.263205  
304.000000	3.863501  
304.500000	3.237340  
305.000000	3.044937  
305.500000	3.123744  
306.000000	2.993179  
306.500000	3.115226  
307.000000	3.202191  
307.500000	3.428326  
308.000000	3.591031  
308.500000	3.590986  
309.000000	3.236253  
309.500000	3.039872  
310.000000	2.858250  
310.500000	2.470986  
311.000000	2.064627  
311.500000	1.523848  
312.000000	1.021866  
312.500000	0.635548  
313.000000	0.327124  
313.500000	0.103778  
314.000000	0.090983  
314.500000	0.308819  
315.000000	0.903925  
315.500000	1.644655  
316.000000	2.373972  
316.500000	2.844672  
317.000000	3.177420  
317.500000	3.140612  
318.000000	2.826111  
318.500000	2.166903  
319.000000	1.264288  
319.500000	0.537132  
320.000000	-0.014389 
320.500000	-0.236198 
321.000000	-0.387521 
321.500000	-0.198761 
322.000000	0.012481  
322.500000	0.264700  
323.000000	0.411509  
323.500000	0.415135  
324.000000	0.532777  
324.500000	0.613120  
325.000000	0.716927  
325.500000	0.748868  
326.000000	1.012572  
326.500000	1.294512  
327.000000	1.709627  
327.500000	2.035606  
328.000000	2.251290  
328.500000	2.499227  
329.000000	2.638090  
329.500000	2.486423  
330.000000	2.151369  
330.500000	1.751470  
331.000000	1.195532  
331.500000	0.772700  
332.000000	0.471244  
332.500000	0.243948  
333.000000	0.323216  
333.500000	0.636890  
334.000000	0.798640  
334.500000	0.971740  
335.000000	1.157692  
335.500000	1.172096  
336.000000	1.099348  
336.500000	1.069508  
337.000000	0.958997  
337.500000	0.952455  
338.000000	1.214446  
338.500000	1.303797  
339.000000	1.318935  
339.500000	1.306180  
340.000000	1.259043  
340.500000	1.069374  
341.000000	0.873479  
341.500000	0.651051  
342.000000	0.533238  
342.500000	0.660206  
343.000000	0.810659  
343.500000	0.948011  
344.000000	1.053843  
344.500000	1.152777  
345.000000	1.265597  
345.500000	1.379197  
346.000000	1.434338  
346.500000	1.505129  
347.000000	1.728814  
347.500000	2.012957  
348.000000	2.329673  
348.500000	2.512604  
349.000000	2.544264  
349.500000	2.493717  
350.000000	2.315500  
350.500000	2.027513  
351.000000	1.743632  
351.500000	1.569798  
352.000000	1.617529  
352.500000	1.860455  
353.000000	2.050946  
353.500000	2.252542  
354.000000	2.529771  
354.500000	2.706862  
355.000000	2.813307  
355.500000	2.703571  
356.000000	2.527696  
356.500000	2.415569  
357.000000	2.372308  
357.500000	2.227768  
358.000000	2.155572  
358.500000	2.226322  
359.000000	2.366430  
359.500000	2.518953  
360.000000	2.520626  
360.500000	2.577507  
361.000000	2.717999  
361.500000	2.918151  
362.000000	3.020706  
362.500000	3.037582  
363.000000	3.059675  
363.500000	3.066180  
364.000000	3.046976  
364.500000	2.853954  
365.000000	2.729397  
365.500000	2.525340  
366.000000	2.424401  
366.500000	2.412125  
367.000000	2.439436  
367.500000	2.558861  
368.000000	2.733028  
368.500000	2.948339  
369.000000	3.127581  
369.500000	3.373182  
370.000000	3.476130  
370.500000	3.523820  
371.000000	3.554284  
371.500000	3.519551  
372.000000	3.494787  
372.500000	3.360361  
373.000000	3.202427  
373.500000	3.107291  
374.000000	3.150182  
374.500000	3.235219  
375.000000	3.328105  
375.500000	3.393875  
376.000000	3.429925  
376.500000	3.463836  
377.000000	3.411036  
377.500000	3.246435  
378.000000	3.079818  
378.500000	2.922191  
379.000000	2.831622  
379.500000	2.772559  
380.000000	2.694958  
380.500000	2.596541  
381.000000	2.543323  
381.500000	2.487751  
382.000000	2.363064  
382.500000	2.253185  
383.000000	2.146531  
383.500000	2.108717  
384.000000	2.119694  
384.500000	2.149632  
385.000000	2.185582  
385.500000	2.291504  
386.000000	2.455936  
386.500000	2.577210  
387.000000	2.642444  
387.500000	2.644271  
388.000000	2.596505  
388.500000	2.502172  
389.000000	2.326128  
389.500000	2.124771  
390.000000	1.999532  
390.500000	1.944054  
391.000000	1.909880  
391.500000	1.896222  
392.000000	1.902923  
392.500000	1.890410  
393.000000	1.835046  
393.500000	1.666894  
394.000000	1.437367  
394.500000	1.212913  
395.000000	1.044058  
395.500000	0.908436  
396.000000	0.842519  
396.500000	0.884620  
397.000000	0.993958  
397.500000	1.086001  
398.000000	1.118601  
398.500000	1.113224  
399.000000	1.078156  
399.500000	1.035025  
400.000000	0.951961  
400.500000	0.871485  
401.000000	0.877523  
401.500000	0.959056  
402.000000	1.028215  
402.500000	1.104077  
403.000000	1.151153  
403.500000	1.146405  
404.000000	1.103681  
404.500000	0.993110  
405.000000	0.858111  
405.500000	0.750738  
406.000000	0.684629  
406.500000	0.616289  
407.000000	0.649514  
407.500000	0.718167  
408.000000	0.805876  
408.500000	0.905703  
409.000000	1.001264  
409.500000	1.096503  
410.000000	1.161682  
410.500000	1.217869  
411.000000	1.182777  
411.500000	1.168117  
412.000000	1.177139  
412.500000	1.153422  
413.000000	1.094387  
413.500000	1.038600  
414.000000	1.014815  
414.500000	0.962065  
415.000000	0.933061  
415.500000	0.876969  
416.000000	0.839085  
416.500000	0.854592  
417.000000	0.880632  
417.500000	0.905262  
418.000000	0.949565  
418.500000	1.027009  
419.000000	1.064052  
419.500000	1.112746  
420.000000	1.141508  
420.500000	1.134751  
421.000000	1.118725  
421.500000	1.085265  
422.000000	1.028996  
422.500000	0.978543  
423.000000	0.961952  
423.500000	0.947568  
424.000000	0.959903  
424.500000	0.972407  
425.000000	0.991306  
425.500000	0.991034  
426.000000	0.991792  
426.500000	0.997212  
427.000000	0.992938  
427.500000	0.992731  
428.000000	0.983656  
428.500000	0.984297  
429.000000	0.979381  
429.500000	0.962167  
430.000000	0.920837  
430.500000	0.878977  
431.000000	0.834161  
431.500000	0.787788  
432.000000	0.755235  
432.500000	0.749774  
433.000000	0.762421  
433.500000	0.791236  
434.000000	0.822713  
434.500000	0.851778  
435.000000	0.870410  
435.500000	0.870457  
436.000000	0.861339  
436.500000	0.835274  
437.000000	0.796444  
437.500000	0.751719  
438.000000	0.698970  
438.500000	0.643511  
439.000000	0.604691  
439.500000	0.596398  
440.000000	0.582071  
440.500000	0.585150  
441.000000	0.597869  
441.500000	0.614046  
442.000000	0.628801  
442.500000	0.633130  
443.000000	0.628740  
443.500000	0.630760  
444.000000	0.658854  
444.500000	0.677458  

