PE FL                   SPECTRUM    ASCII       PEDS        1.60        
  -1
PP883B~1
23/10/10
15:15:20.00
23/10/10
15:15:20.00


444.500000
1









LS55
15.00
5.00
5.00
SCAN
1
20
100
100
0
500
0
2
0
1
7
ON
500 450 
1 0 0
#HDR
-1
-1
#GR
NM

0.00002384185791015625
0.0
250.000000
0.500000
390
8
3.989430
-4.999999
#DATA
250.000000	-4.999999 
250.500000	-4.294489 
251.000000	-3.589651 
251.500000	-3.279214 
252.000000	-3.341848 
252.500000	-3.037005 
253.000000	-2.600916 
253.500000	-2.327394 
254.000000	-1.765092 
254.500000	-1.159925 
255.000000	-0.411250 
255.500000	0.296970  
256.000000	0.625768  
256.500000	-0.075110 
257.000000	-0.745770 
257.500000	-1.480236 
258.000000	-2.029819 
258.500000	-2.345983 
259.000000	-2.255020 
259.500000	-1.693085 
260.000000	-0.581102 
260.500000	0.954739  
261.000000	1.928824  
261.500000	2.654574  
262.000000	2.717843  
262.500000	2.334117  
263.000000	1.416776  
263.500000	0.222201  
264.000000	-1.019174 
264.500000	-2.274243 
265.000000	-3.169919 
265.500000	-3.410229 
266.000000	-3.169589 
266.500000	-2.479420 
267.000000	-1.668520 
267.500000	-0.694532 
268.000000	0.156843  
268.500000	0.823169  
269.000000	0.732408  
269.500000	0.278444  
270.000000	-0.396247 
270.500000	-1.251074 
271.000000	-2.049547 
271.500000	-2.907316 
272.000000	-3.283649 
272.500000	-3.440640 
273.000000	-3.044685 
273.500000	-2.750970 
274.000000	-2.310306 
274.500000	-1.830643 
275.000000	-1.410926 
275.500000	-1.420789 
276.000000	-1.833501 
276.500000	-2.307267 
277.000000	-2.523114 
277.500000	-2.460901 
278.000000	-2.430353 
278.500000	-2.038232 
279.000000	-1.424444 
279.500000	-0.419973 
280.000000	0.269105  
280.500000	0.439185  
281.000000	0.088092  
281.500000	-0.361375 
282.000000	-1.129561 
282.500000	-2.059840 
283.000000	-2.787687 
283.500000	-3.369478 
284.000000	-3.492093 
284.500000	-3.109204 
285.000000	-2.556841 
285.500000	-2.298409 
286.000000	-1.792205 
286.500000	-1.631080 
287.000000	-1.500159 
287.500000	-1.306601 
288.000000	-1.428058 
288.500000	-1.759863 
289.000000	-1.871006 
289.500000	-2.051824 
290.000000	-2.344132 
290.500000	-2.350189 
291.000000	-2.349332 
291.500000	-2.137404 
292.000000	-1.532036 
292.500000	-0.818574 
293.000000	-0.124599 
293.500000	0.606368  
294.000000	1.080426  
294.500000	1.098533  
295.000000	0.822571  
295.500000	0.309872  
296.000000	-0.508168 
296.500000	-1.140042 
297.000000	-1.455964 
297.500000	-1.427726 
298.000000	-1.025874 
298.500000	-0.576251 
299.000000	-0.193678 
299.500000	0.014485  
300.000000	0.338694  
300.500000	0.238341  
301.000000	0.008354  
301.500000	-0.209727 
302.000000	-0.419746 
302.500000	-0.684427 
303.000000	-0.938893 
303.500000	-1.357251 
304.000000	-1.871877 
304.500000	-2.106004 
305.000000	-2.377564 
305.500000	-2.642107 
306.000000	-2.827846 
306.500000	-3.033530 
307.000000	-2.986228 
307.500000	-2.694277 
308.000000	-2.372341 
308.500000	-1.914952 
309.000000	-0.967571 
309.500000	0.284783  
310.000000	1.542800  
310.500000	2.579496  
311.000000	3.306352  
311.500000	3.799313  
312.000000	3.989430  
312.500000	3.456390  
313.000000	2.523006  
313.500000	1.616666  
314.000000	1.013079  
314.500000	0.555444  
315.000000	0.318553  
315.500000	0.341479  
316.000000	0.723221  
316.500000	1.570426  
317.000000	2.283369  
317.500000	2.770029  
318.000000	3.129246  
318.500000	3.398871  
319.000000	3.238307  
319.500000	2.771599  
320.000000	2.317079  
320.500000	1.708680  
321.000000	1.399229  
321.500000	1.143193  
322.000000	0.994384  
322.500000	0.931433  
323.000000	0.845203  
323.500000	0.662959  
324.000000	0.482774  
324.500000	0.562401  
325.000000	0.587647  
325.500000	0.798050  
326.000000	0.930639  
326.500000	1.095907  
327.000000	1.285262  
327.500000	1.193800  
328.000000	0.997201  
328.500000	0.737195  
329.000000	0.682878  
329.500000	0.717483  
330.000000	0.900331  
330.500000	1.172390  
331.000000	1.654845  
331.500000	2.159011  
332.000000	2.311871  
332.500000	2.257397  
333.000000	1.990784  
333.500000	1.691566  
334.000000	1.406619  
334.500000	1.070749  
335.000000	0.769771  
335.500000	0.736238  
336.000000	0.852020  
336.500000	0.957552  
337.000000	1.056562  
337.500000	1.072699  
338.000000	1.141914  
338.500000	1.410100  
339.000000	1.574527  
339.500000	1.517573  
340.000000	1.487331  
340.500000	1.498508  
341.000000	1.455354  
341.500000	1.415277  
342.000000	1.220030  
342.500000	1.061322  
343.000000	1.149529  
343.500000	1.367996  
344.000000	1.481206  
344.500000	1.514053  
345.000000	1.516781  
345.500000	1.456326  
346.000000	1.390037  
346.500000	1.209827  
347.000000	1.111384  
347.500000	1.156213  
348.000000	1.404534  
348.500000	1.694019  
349.000000	1.987207  
349.500000	2.219175  
350.000000	2.371383  
350.500000	2.291323  
351.000000	1.962173  
351.500000	1.600989  
352.000000	1.211544  
352.500000	0.932677  
353.000000	0.795883  
353.500000	0.870765  
354.000000	1.114165  
354.500000	1.576971  
355.000000	1.912693  
355.500000	2.137376  
356.000000	2.292702  
356.500000	2.304870  
357.000000	2.184521  
357.500000	1.936509  
358.000000	1.620543  
358.500000	1.236216  
359.000000	1.015770  
359.500000	0.802285  
360.000000	0.627166  
360.500000	0.478978  
361.000000	0.440296  
361.500000	0.480003  
362.000000	0.568387  
362.500000	0.696817  
363.000000	0.756185  
363.500000	0.918393  
364.000000	1.132011  
364.500000	1.380852  
365.000000	1.488367  
365.500000	1.491957  
366.000000	1.476313  
366.500000	1.403786  
367.000000	1.306500  
367.500000	1.056906  
368.000000	0.865984  
368.500000	0.781166  
369.000000	0.873530  
369.500000	1.000528  
370.000000	1.067301  
370.500000	1.231217  
371.000000	1.407371  
371.500000	1.579457  
372.000000	1.683617  
372.500000	1.712942  
373.000000	1.651196  
373.500000	1.640810  
374.000000	1.654065  
374.500000	1.611747  
375.000000	1.573291  
375.500000	1.534578  
376.000000	1.490537  
376.500000	1.484827  
377.000000	1.396489  
377.500000	1.282951  
378.000000	1.146778  
378.500000	0.991202  
379.000000	0.853716  
379.500000	0.766580  
380.000000	0.714436  
380.500000	0.690010  
381.000000	0.793146  
381.500000	0.837287  
382.000000	0.919575  
382.500000	1.007839  
383.000000	1.056198  
383.500000	1.085927  
384.000000	1.137545  
384.500000	1.169723  
385.000000	1.227461  
385.500000	1.357694  
386.000000	1.396687  
386.500000	1.459442  
387.000000	1.577597  
387.500000	1.669474  
388.000000	1.705962  
388.500000	1.707756  
389.000000	1.642372  
389.500000	1.495156  
390.000000	1.374754  
390.500000	1.163253  
391.000000	0.952757  
391.500000	0.852113  
392.000000	0.835868  
392.500000	0.921892  
393.000000	1.037567  
393.500000	1.159842  
394.000000	1.212780  
394.500000	1.281626  
395.000000	1.305175  
395.500000	1.288055  
396.000000	1.279095  
396.500000	1.287694  
397.000000	1.357970  
397.500000	1.466592  
398.000000	1.602187  
398.500000	1.658505  
399.000000	1.695375  
399.500000	1.702864  
400.000000	1.680395  
400.500000	1.584882  
401.000000	1.468251  
401.500000	1.371857  
402.000000	1.293220  
402.500000	1.225778  
403.000000	1.151570  
403.500000	1.071718  
404.000000	0.991630  
404.500000	0.933676  
405.000000	0.894391  
405.500000	0.869741  
406.000000	0.878249  
406.500000	0.922999  
407.000000	0.991104  
407.500000	1.099697  
408.000000	1.230387  
408.500000	1.344879  
409.000000	1.407251  
409.500000	1.479354  
410.000000	1.489982  
410.500000	1.481782  
411.000000	1.456357  
411.500000	1.412116  
412.000000	1.392654  
412.500000	1.392178  
413.000000	1.419515  
413.500000	1.389878  
414.000000	1.406797  
414.500000	1.414295  
415.000000	1.399417  
415.500000	1.374895  
416.000000	1.347567  
416.500000	1.335441  
417.000000	1.297367  
417.500000	1.309563  
418.000000	1.306565  
418.500000	1.322520  
419.000000	1.351153  
419.500000	1.368428  
420.000000	1.345381  
420.500000	1.302179  
421.000000	1.260962  
421.500000	1.138393  
422.000000	1.024188  
422.500000	0.940017  
423.000000	0.876576  
423.500000	0.858912  
424.000000	0.887818  
424.500000	0.930029  
425.000000	0.963872  
425.500000	1.027272  
426.000000	1.037397  
426.500000	1.020549  
427.000000	1.008355  
427.500000	0.971409  
428.000000	0.936172  
428.500000	0.920250  
429.000000	0.918375  
429.500000	0.918039  
430.000000	0.922140  
430.500000	0.908720  
431.000000	0.905018  
431.500000	0.923098  
432.000000	0.937404  
432.500000	0.942218  
433.000000	0.950287  
433.500000	0.973227  
434.000000	1.010920  
434.500000	1.044288  
435.000000	1.053407  
435.500000	1.047184  
436.000000	1.041464  
436.500000	1.040400  
437.000000	1.026445  
437.500000	1.014837  
438.000000	1.001992  
438.500000	0.995757  
439.000000	0.997564  
439.500000	0.998195  
440.000000	0.984515  
440.500000	0.955470  
441.000000	0.950485  
441.500000	0.944959  
442.000000	0.952970  
442.500000	0.978386  
443.000000	0.997078  
443.500000	1.017226  
444.000000	1.048039  
444.500000	1.067436  

