PE FL                   SPECTRUM    ASCII       PEDS        1.60        
  -1
PP9803~1
23/10/10
15:20:04.00
23/10/10
15:20:04.00


444.500000
1









LS55
50.00
5.00
5.00
SCAN
1
20
100
100
0
500
0
2
0
1
7
ON
500 450 
1 0 0
#HDR
-1
-1
#GR
NM

0.00002384185791015625
0.0
250.000000
0.500000
390
8
6.585213
-4.183000
#DATA
250.000000	-4.183000 
250.500000	-4.036973 
251.000000	-3.536379 
251.500000	-3.385351 
252.000000	-2.893232 
252.500000	-2.077095 
253.000000	-1.314206 
253.500000	-0.652224 
254.000000	0.167451  
254.500000	0.488141  
255.000000	0.380911  
255.500000	0.178088  
256.000000	-0.691253 
256.500000	-1.693548 
257.000000	-2.527019 
257.500000	-3.281897 
258.000000	-3.769979 
258.500000	-3.844855 
259.000000	-3.843596 
259.500000	-4.051706 
260.000000	-3.969930 
260.500000	-4.066270 
261.000000	-4.151229 
261.500000	-4.178492 
262.000000	-4.115257 
262.500000	-3.897797 
263.000000	-3.677216 
263.500000	-3.250671 
264.000000	-3.108406 
264.500000	-3.048418 
265.000000	-3.052158 
265.500000	-3.256347 
266.000000	-3.513739 
266.500000	-3.709735 
267.000000	-3.647363 
267.500000	-3.314289 
268.000000	-2.582564 
268.500000	-1.565637 
269.000000	-0.569648 
269.500000	0.451893  
270.000000	0.958532  
270.500000	1.164786  
271.000000	0.858703  
271.500000	0.314746  
272.000000	-0.398159 
272.500000	-1.120157 
273.000000	-1.707623 
273.500000	-2.230588 
274.000000	-2.304922 
274.500000	-2.408003 
275.000000	-2.202054 
275.500000	-2.075170 
276.000000	-1.803574 
276.500000	-1.421604 
277.000000	-1.145362 
277.500000	-1.047458 
278.000000	-1.219561 
278.500000	-1.458260 
279.000000	-1.742616 
279.500000	-1.861909 
280.000000	-1.955642 
280.500000	-1.556547 
281.000000	-0.786828 
281.500000	0.176132  
282.000000	1.083189  
282.500000	1.534645  
283.000000	1.450391  
283.500000	1.173853  
284.000000	0.952377  
284.500000	0.639611  
285.000000	0.770454  
285.500000	1.250102  
286.000000	2.135368  
286.500000	3.379685  
287.000000	4.599571  
287.500000	5.369941  
288.000000	5.608196  
288.500000	5.569218  
289.000000	5.258020  
289.500000	4.934788  
290.000000	4.492150  
290.500000	4.253981  
291.000000	4.319578  
291.500000	4.748900  
292.000000	5.418187  
292.500000	5.726677  
293.000000	5.772808  
293.500000	5.869939  
294.000000	6.014210  
294.500000	5.645862  
295.000000	5.259665  
295.500000	4.803357  
296.000000	4.556719  
296.500000	4.867696  
297.000000	4.941648  
297.500000	4.688984  
298.000000	4.718545  
298.500000	5.034537  
299.000000	4.968920  
299.500000	4.663480  
300.000000	4.343941  
300.500000	4.087943  
301.000000	4.400766  
301.500000	4.529578  
302.000000	4.395910  
302.500000	4.292850  
303.000000	4.503038  
303.500000	4.719309  
304.000000	4.688762  
304.500000	4.330501  
305.000000	4.167810  
305.500000	4.359504  
306.000000	4.533355  
306.500000	4.925148  
307.000000	5.220856  
307.500000	5.530295  
308.000000	6.200187  
308.500000	6.585213  
309.000000	6.388646  
309.500000	6.093170  
310.000000	5.779835  
310.500000	5.331393  
311.000000	5.117505  
311.500000	4.825722  
312.000000	4.502174  
312.500000	4.526019  
313.000000	4.509244  
313.500000	4.150281  
314.000000	3.699914  
314.500000	3.236386  
315.000000	2.815265  
315.500000	2.551135  
316.000000	2.406902  
316.500000	2.355887  
317.000000	2.552268  
317.500000	2.717994  
318.000000	2.792978  
318.500000	2.394033  
319.000000	1.782434  
319.500000	1.294950  
320.000000	0.830708  
320.500000	0.585818  
321.000000	0.469814  
321.500000	0.429045  
322.000000	0.572646  
322.500000	0.941453  
323.000000	1.219388  
323.500000	1.316505  
324.000000	1.385997  
324.500000	1.406778  
325.000000	1.462991  
325.500000	1.523657  
326.000000	1.420280  
326.500000	1.228814  
327.000000	1.156488  
327.500000	1.164139  
328.000000	1.139314  
328.500000	1.041617  
329.000000	0.965396  
329.500000	0.934039  
330.000000	0.974238  
330.500000	1.033680  
331.000000	1.020916  
331.500000	0.994591  
332.000000	1.188376  
332.500000	1.519263  
333.000000	1.738077  
333.500000	1.830278  
334.000000	1.786135  
334.500000	1.660524  
335.000000	1.541478  
335.500000	1.368914  
336.000000	1.199921  
336.500000	1.228118  
337.000000	1.440753  
337.500000	1.657753  
338.000000	1.724745  
338.500000	1.614979  
339.000000	1.341955  
339.500000	0.956728  
340.000000	0.496899  
340.500000	0.103199  
341.000000	-0.100393 
341.500000	-0.095565 
342.000000	0.015746  
342.500000	0.202940  
343.000000	0.425294  
343.500000	0.615096  
344.000000	0.778981  
344.500000	0.822461  
345.000000	0.890098  
345.500000	1.066698  
346.000000	1.351734  
346.500000	1.544373  
347.000000	1.693104  
347.500000	1.837427  
348.000000	1.928850  
348.500000	1.874249  
349.000000	1.669010  
349.500000	1.312628  
350.000000	1.018098  
350.500000	0.848969  
351.000000	0.654500  
351.500000	0.553422  
352.000000	0.571559  
352.500000	0.671470  
353.000000	0.870204  
353.500000	1.160093  
354.000000	1.387092  
354.500000	1.660896  
355.000000	2.015277  
355.500000	2.325301  
356.000000	2.601208  
356.500000	2.772109  
357.000000	2.818060  
357.500000	2.835249  
358.000000	2.813570  
358.500000	2.693429  
359.000000	2.570138  
359.500000	2.570611  
360.000000	2.671626  
360.500000	2.859292  
361.000000	2.972501  
361.500000	3.006502  
362.000000	2.998689  
362.500000	2.910269  
363.000000	2.786802  
363.500000	2.552213  
364.000000	2.353048  
364.500000	2.247712  
365.000000	2.257233  
365.500000	2.249958  
366.000000	2.298463  
366.500000	2.354368  
367.000000	2.353524  
367.500000	2.455811  
368.000000	2.511064  
368.500000	2.537529  
369.000000	2.528669  
369.500000	2.487477  
370.000000	2.435345  
370.500000	2.396060  
371.000000	2.352042  
371.500000	2.254379  
372.000000	2.274466  
372.500000	2.294106  
373.000000	2.373437  
373.500000	2.490174  
374.000000	2.571887  
374.500000	2.678481  
375.000000	2.768789  
375.500000	2.810187  
376.000000	2.807695  
376.500000	2.761673  
377.000000	2.666241  
377.500000	2.568112  
378.000000	2.469123  
378.500000	2.308715  
379.000000	2.137838  
379.500000	1.973812  
380.000000	1.819252  
380.500000	1.752286  
381.000000	1.664234  
381.500000	1.629697  
382.000000	1.698895  
382.500000	1.846683  
383.000000	2.079927  
383.500000	2.342554  
384.000000	2.582103  
384.500000	2.760916  
385.000000	2.947721  
385.500000	2.957846  
386.000000	2.898617  
386.500000	2.806235  
387.000000	2.630291  
387.500000	2.495649  
388.000000	2.397370  
388.500000	2.267521  
389.000000	2.115706  
389.500000	2.041912  
390.000000	1.979337  
390.500000	1.978987  
391.000000	2.005294  
391.500000	2.003267  
392.000000	2.016653  
392.500000	2.063837  
393.000000	2.104551  
393.500000	2.087463  
394.000000	2.044002  
394.500000	2.036288  
395.000000	2.108203  
395.500000	2.205746  
396.000000	2.296356  
396.500000	2.337230  
397.000000	2.351970  
397.500000	2.327779  
398.000000	2.242038  
398.500000	2.021491  
399.000000	1.801181  
399.500000	1.617893  
400.000000	1.473713  
400.500000	1.423634  
401.000000	1.405062  
401.500000	1.444261  
402.000000	1.536093  
402.500000	1.680114  
403.000000	1.792447  
403.500000	1.886864  
404.000000	1.940416  
404.500000	1.938074  
405.000000	1.899835  
405.500000	1.839751  
406.000000	1.739156  
406.500000	1.619118  
407.000000	1.481930  
407.500000	1.394329  
408.000000	1.340610  
408.500000	1.300182  
409.000000	1.247391  
409.500000	1.240527  
410.000000	1.260907  
410.500000	1.249196  
411.000000	1.216598  
411.500000	1.117289  
412.000000	1.021599  
412.500000	0.974770  
413.000000	0.931856  
413.500000	0.888054  
414.000000	0.924412  
414.500000	1.027029  
415.000000	1.149838  
415.500000	1.280941  
416.000000	1.354667  
416.500000	1.381469  
417.000000	1.413335  
417.500000	1.359606  
418.000000	1.243770  
418.500000	1.133306  
419.000000	1.034133  
419.500000	0.977387  
420.000000	0.946312  
420.500000	0.950231  
421.000000	0.975375  
421.500000	1.051012  
422.000000	1.107345  
422.500000	1.146893  
423.000000	1.167616  
423.500000	1.124540  
424.000000	1.073869  
424.500000	0.999097  
425.000000	0.929652  
425.500000	0.892484  
426.000000	0.905357  
426.500000	0.914543  
427.000000	0.928655  
427.500000	0.945201  
428.000000	0.944236  
428.500000	0.933259  
429.000000	0.890427  
429.500000	0.835356  
430.000000	0.781876  
430.500000	0.766166  
431.000000	0.768906  
431.500000	0.768171  
432.000000	0.772732  
432.500000	0.792728  
433.000000	0.809668  
433.500000	0.813699  
434.000000	0.809767  
434.500000	0.791672  
435.000000	0.788126  
435.500000	0.803475  
436.000000	0.817434  
436.500000	0.817075  
437.000000	0.820252  
437.500000	0.831601  
438.000000	0.834306  
438.500000	0.833092  
439.000000	0.828115  
439.500000	0.814488  
440.000000	0.795547  
440.500000	0.772346  
441.000000	0.765874  
441.500000	0.774589  
442.000000	0.791732  
442.500000	0.793485  
443.000000	0.796566  
443.500000	0.813617  
444.000000	0.833732  
444.500000	0.834436  

