PE FL                   SPECTRUM    ASCII       PEDS        1.60        
  -1
PP881B~1
23/10/10
15:13:59.00
23/10/10
15:13:59.00


444.500000
1









LS55
5.00
5.00
5.00
SCAN
1
20
100
100
0
500
0
2
0
1
7
ON
500 450 
1 0 0
#HDR
-1
-1
#GR
NM

0.00002384185791015625
0.0
250.000000
0.500000
390
8
54.544151
-4.999999
#DATA
250.000000	-4.999999 
250.500000	-4.338934 
251.000000	-3.872465 
251.500000	-3.272225 
252.000000	-3.068048 
252.500000	-2.937652 
253.000000	-3.050691 
253.500000	-2.834214 
254.000000	-2.538543 
254.500000	-2.197265 
255.000000	-2.059622 
255.500000	-2.510197 
256.000000	-2.964740 
256.500000	-3.610652 
257.000000	-3.707844 
257.500000	-3.696987 
258.000000	-3.138333 
258.500000	-2.111367 
259.000000	-0.729566 
259.500000	0.693613  
260.000000	1.147155  
260.500000	0.892336  
261.000000	0.147627  
261.500000	-0.353582 
262.000000	-1.065096 
262.500000	-1.542178 
263.000000	-1.733816 
263.500000	-1.576164 
264.000000	-1.025108 
264.500000	-0.959238 
265.000000	-1.325531 
265.500000	-2.105179 
266.000000	-2.785456 
266.500000	-3.626281 
267.000000	-4.229702 
267.500000	-4.599710 
268.000000	-4.546237 
268.500000	-4.042560 
269.000000	-3.756424 
269.500000	-3.743198 
270.000000	-3.859374 
270.500000	-4.035153 
271.000000	-3.990161 
271.500000	-3.759090 
272.000000	-3.407733 
272.500000	-2.700798 
273.000000	-1.752608 
273.500000	-0.720957 
274.000000	0.068201  
274.500000	0.504417  
275.000000	0.263226  
275.500000	-0.101648 
276.000000	-0.546736 
276.500000	-1.375147 
277.000000	-1.823663 
277.500000	-1.975428 
278.000000	-1.533246 
278.500000	-0.774619 
279.000000	0.206876  
279.500000	0.684431  
280.000000	1.026889  
280.500000	1.127319  
281.000000	0.442059  
281.500000	-0.255334 
282.000000	-1.117142 
282.500000	-1.999212 
283.000000	-2.767794 
283.500000	-3.179889 
284.000000	-3.419153 
284.500000	-3.286030 
285.000000	-2.813093 
285.500000	-2.588948 
286.000000	-2.211855 
286.500000	-1.957906 
287.000000	-1.958017 
287.500000	-2.038616 
288.000000	-2.447162 
288.500000	-2.906986 
289.000000	-2.993896 
289.500000	-2.926085 
290.000000	-2.676620 
290.500000	-2.161521 
291.000000	-1.546995 
291.500000	-1.060532 
292.000000	-0.568642 
292.500000	-0.690561 
293.000000	-1.151675 
293.500000	-1.525762 
294.000000	-1.959203 
294.500000	-2.257485 
295.000000	-2.027311 
295.500000	-1.422041 
296.000000	-0.551669 
296.500000	0.534511  
297.000000	1.476983  
297.500000	2.133400  
298.000000	2.502803  
298.500000	2.487624  
299.000000	1.962783  
299.500000	1.249747  
300.000000	0.368751  
300.500000	-0.291024 
301.000000	-0.857215 
301.500000	-1.103053 
302.000000	-1.118391 
302.500000	-0.859863 
303.000000	-0.250974 
303.500000	0.531011  
304.000000	1.416830  
304.500000	1.937646  
305.000000	2.368874  
305.500000	2.457884  
306.000000	2.373818  
306.500000	1.945433  
307.000000	1.307772  
307.500000	0.786359  
308.000000	0.604925  
308.500000	0.794846  
309.000000	1.151562  
309.500000	1.743337  
310.000000	2.346633  
310.500000	2.899956  
311.000000	3.277216  
311.500000	3.400441  
312.000000	3.446415  
312.500000	3.174246  
313.000000	2.705571  
313.500000	2.178278  
314.000000	1.804991  
314.500000	1.447401  
315.000000	1.346809  
315.500000	1.845368  
316.000000	2.647758  
316.500000	4.000128  
317.000000	5.332501  
317.500000	6.542597  
318.000000	7.485402  
318.500000	8.237818  
319.000000	8.562939  
319.500000	8.453220  
320.000000	8.315275  
320.500000	8.107909  
321.000000	8.150139  
321.500000	8.272082  
322.000000	8.597445  
322.500000	8.794065  
323.000000	9.094611  
323.500000	9.378144  
324.000000	9.497030  
324.500000	9.658249  
325.000000	9.850049  
325.500000	10.195722 
326.000000	10.595789 
326.500000	11.019961 
327.000000	11.210368 
327.500000	11.447970 
328.000000	11.683305 
328.500000	11.833831 
329.000000	11.835145 
329.500000	11.608570 
330.000000	11.346796 
330.500000	11.177091 
331.000000	11.067770 
331.500000	10.884881 
332.000000	10.897823 
332.500000	10.982695 
333.000000	11.323533 
333.500000	11.781807 
334.000000	12.112360 
334.500000	12.350398 
335.000000	12.670156 
335.500000	12.964522 
336.000000	13.079720 
336.500000	13.232387 
337.000000	13.297665 
337.500000	13.770720 
338.000000	14.486693 
338.500000	15.237812 
339.000000	15.888020 
339.500000	16.492356 
340.000000	17.227762 
340.500000	17.682036 
341.000000	17.852248 
341.500000	17.639055 
342.000000	17.340455 
342.500000	17.048551 
343.000000	16.856882 
343.500000	16.554497 
344.000000	16.203118 
344.500000	16.186330 
345.000000	16.723031 
345.500000	17.592890 
346.000000	18.541940 
346.500000	19.464598 
347.000000	20.451079 
347.500000	21.660542 
348.000000	22.756731 
348.500000	23.298871 
349.000000	23.336268 
349.500000	23.555181 
350.000000	23.939953 
350.500000	24.578359 
351.000000	25.179345 
351.500000	25.943719 
352.000000	26.910083 
352.500000	28.260513 
353.000000	29.531221 
353.500000	30.294205 
354.000000	30.959463 
354.500000	31.556040 
355.000000	32.480543 
355.500000	33.808080 
356.000000	35.727754 
356.500000	38.032995 
357.000000	40.874330 
357.500000	43.978695 
358.000000	47.067453 
358.500000	49.501612 
359.000000	50.990268 
359.500000	51.486353 
360.000000	51.620011 
360.500000	51.503082 
361.000000	51.320745 
361.500000	51.351492 
362.000000	51.673359 
362.500000	52.376559 
363.000000	53.091569 
363.500000	53.860589 
364.000000	54.007958 
364.500000	54.016011 
365.000000	53.534921 
365.500000	52.814178 
366.000000	52.066725 
366.500000	51.328207 
367.000000	50.718368 
367.500000	49.881461 
368.000000	49.245624 
368.500000	48.414877 
369.000000	47.717610 
369.500000	46.974455 
370.000000	46.450396 
370.500000	46.275653 
371.000000	46.487832 
371.500000	47.020031 
372.000000	47.480538 
372.500000	47.828421 
373.000000	48.211327 
373.500000	48.473104 
374.000000	48.558817 
374.500000	48.708845 
375.000000	48.980512 
375.500000	49.369530 
376.000000	50.167738 
376.500000	51.260277 
377.000000	52.193524 
377.500000	53.110940 
378.000000	53.843343 
378.500000	54.155933 
379.000000	54.052927 
379.500000	53.633890 
380.000000	52.981578 
380.500000	52.368706 
381.000000	52.008137 
381.500000	51.428938 
382.000000	50.680175 
382.500000	50.084571 
383.000000	49.563173 
383.500000	48.840920 
384.000000	47.913038 
384.500000	46.641819 
385.000000	45.337868 
385.500000	44.220375 
386.000000	43.214332 
386.500000	42.067113 
387.000000	40.906824 
387.500000	39.774465 
388.000000	38.594535 
388.500000	37.330014 
389.000000	35.827957 
389.500000	34.056005 
390.000000	32.172469 
390.500000	30.357016 
391.000000	28.508361 
391.500000	26.567578 
392.000000	24.670467 
392.500000	23.034890 
393.000000	21.890584 
393.500000	21.163579 
394.000000	20.628667 
394.500000	20.219716 
395.000000	20.091626 
395.500000	20.295748 
396.000000	20.488462 
396.500000	20.549503 
397.000000	20.506052 
397.500000	20.363945 
398.000000	20.192801 
398.500000	19.832845 
399.000000	19.241189 
399.500000	18.474928 
400.000000	17.595185 
400.500000	16.733308 
401.000000	15.878069 
401.500000	15.109332 
402.000000	14.535505 
402.500000	14.143160 
403.000000	13.969764 
403.500000	13.857608 
404.000000	13.727620 
404.500000	13.477032 
405.000000	13.132457 
405.500000	12.775606 
406.000000	12.314425 
406.500000	11.762377 
407.000000	11.157524 
407.500000	10.671612 
408.000000	10.278480 
408.500000	10.045566 
409.000000	9.910981  
409.500000	9.875795  
410.000000	10.080067 
410.500000	10.392271 
411.000000	10.718651 
411.500000	10.979513 
412.000000	11.297235 
412.500000	11.506673 
413.000000	11.665530 
413.500000	11.730575 
414.000000	11.631613 
414.500000	11.567719 
415.000000	11.560093 
415.500000	11.512646 
416.000000	11.461146 
416.500000	11.573185 
417.000000	11.715089 
417.500000	11.987165 
418.000000	12.369843 
418.500000	12.736459 
419.000000	13.119109 
419.500000	13.508013 
420.000000	13.860666 
420.500000	14.143436 
421.000000	14.425818 
421.500000	14.643816 
422.000000	14.855253 
422.500000	15.166429 
423.000000	15.582387 
423.500000	16.063526 
424.000000	16.578226 
424.500000	17.133826 
425.000000	17.790183 
425.500000	18.421434 
426.000000	18.960714 
426.500000	19.303701 
427.000000	19.554536 
427.500000	19.819240 
428.000000	20.010929 
428.500000	20.131750 
429.000000	20.290887 
429.500000	20.694141 
430.000000	21.373383 
430.500000	22.367408 
431.000000	23.570153 
431.500000	24.986931 
432.000000	26.659959 
432.500000	28.723667 
433.000000	30.939366 
433.500000	33.004168 
434.000000	35.003568 
434.500000	36.949144 
435.000000	38.789085 
435.500000	40.423703 
436.000000	41.739981 
436.500000	42.539615 
437.000000	43.306483 
437.500000	43.858014 
438.000000	44.089435 
438.500000	44.088131 
439.000000	44.027008 
439.500000	44.015264 
440.000000	44.446252 
440.500000	45.205078 
441.000000	45.985319 
441.500000	47.189077 
442.000000	48.571042 
442.500000	50.107340 
443.000000	51.621055 
443.500000	52.937528 
444.000000	53.789931 
444.500000	54.544151 

