PE FL                   SPECTRUM    ASCII       PEDS        1.60        
  -1
PM6772~1
23/10/12
11:30:35.00
23/10/12
11:30:35.00


444.500000
1









LS55
25.00
5.00
5.00
SCAN
1
20
100
500
0
500
0
2
0
1
7
ON
500 450 
1 0 0
#HDR
-1
-1
#GR
NM

0.00002384185791015625
0.0
250.000000
0.500000
390
8
4.174586
-5.000000
#DATA
250.000000	-5.000000 
250.500000	-3.335893 
251.000000	-2.058296 
251.500000	-1.344606 
252.000000	-1.042217 
252.500000	-1.218691 
253.000000	-1.642224 
253.500000	-2.389736 
254.000000	-3.025774 
254.500000	-3.517186 
255.000000	-3.700945 
255.500000	-4.034099 
256.000000	-4.116331 
256.500000	-4.116472 
257.000000	-3.904062 
257.500000	-3.419311 
258.000000	-2.901996 
258.500000	-2.486784 
259.000000	-2.023072 
259.500000	-1.430956 
260.000000	-1.523447 
260.500000	-1.702692 
261.000000	-2.094814 
261.500000	-2.413676 
262.000000	-3.004598 
262.500000	-3.118500 
263.000000	-3.105855 
263.500000	-2.821973 
264.000000	-2.197341 
264.500000	-2.034345 
265.000000	-1.832697 
265.500000	-1.781308 
266.000000	-1.728833 
266.500000	-2.105273 
267.000000	-2.091484 
267.500000	-2.011489 
268.000000	-1.610339 
268.500000	-0.966205 
269.000000	-0.757964 
269.500000	-0.544274 
270.000000	-0.445089 
270.500000	-0.589639 
271.000000	-1.333727 
271.500000	-1.939027 
272.000000	-2.668513 
272.500000	-2.822926 
273.000000	-2.400924 
273.500000	-2.106627 
274.000000	-1.492702 
274.500000	-0.677100 
275.000000	-0.127938 
275.500000	-0.028010 
276.000000	-0.102924 
276.500000	-0.696036 
277.000000	-1.512043 
277.500000	-1.886111 
278.000000	-2.441975 
278.500000	-2.764370 
279.000000	-2.564895 
279.500000	-1.903908 
280.000000	-1.204146 
280.500000	-0.245632 
281.000000	0.741158  
281.500000	1.357643  
282.000000	2.038768  
282.500000	2.528870  
283.000000	2.667635  
283.500000	2.707212  
284.000000	2.845294  
284.500000	2.518290  
285.000000	1.960834  
285.500000	1.472477  
286.000000	1.106975  
286.500000	0.859046  
287.000000	1.010356  
287.500000	1.480408  
288.000000	2.089699  
288.500000	3.213123  
289.000000	3.908172  
289.500000	4.158425  
290.000000	3.854758  
290.500000	3.626285  
291.000000	2.707801  
291.500000	1.548647  
292.000000	0.632914  
292.500000	0.016031  
293.000000	0.229317  
293.500000	0.401486  
294.000000	0.620645  
294.500000	0.862090  
295.000000	1.618371  
295.500000	2.131387  
296.000000	2.161936  
296.500000	2.004022  
297.000000	1.561794  
297.500000	1.368102  
298.000000	0.753890  
298.500000	-0.131565 
299.000000	-0.914751 
299.500000	-0.976223 
300.000000	-0.841059 
300.500000	-0.533267 
301.000000	-0.141603 
301.500000	0.357001  
302.000000	0.923300  
302.500000	1.308623  
303.000000	1.564330  
303.500000	1.472337  
304.000000	1.631187  
304.500000	1.479543  
305.000000	1.265517  
305.500000	1.174407  
306.000000	1.068114  
306.500000	0.779640  
307.000000	0.736158  
307.500000	0.948579  
308.000000	1.059060  
308.500000	1.558732  
309.000000	1.888600  
309.500000	2.219649  
310.000000	2.542896  
310.500000	2.765158  
311.000000	2.685088  
311.500000	2.898718  
312.000000	3.259429  
312.500000	3.700024  
313.000000	4.101795  
313.500000	4.174586  
314.000000	4.046772  
314.500000	3.948397  
315.000000	3.601961  
315.500000	2.941504  
316.000000	2.442346  
316.500000	1.962694  
317.000000	1.789019  
317.500000	1.693172  
318.000000	1.449089  
318.500000	1.184451  
319.000000	0.832340  
319.500000	0.564007  
320.000000	0.134221  
320.500000	-0.241231 
321.000000	-0.435972 
321.500000	-0.309470 
322.000000	0.013988  
322.500000	0.469226  
323.000000	0.993090  
323.500000	1.384541  
324.000000	1.847107  
324.500000	1.926230  
325.000000	1.781013  
325.500000	1.630308  
326.000000	1.474224  
326.500000	1.121957  
327.000000	0.813313  
327.500000	0.753269  
328.000000	0.812884  
328.500000	1.246791  
329.000000	1.477836  
329.500000	1.580776  
330.000000	1.663663  
330.500000	1.824645  
331.000000	1.744532  
331.500000	1.462808  
332.000000	1.155661  
332.500000	0.913801  
333.000000	0.913865  
333.500000	0.799728  
334.000000	0.514103  
334.500000	0.129697  
335.000000	-0.237404 
335.500000	-0.623231 
336.000000	-1.099623 
336.500000	-1.511168 
337.000000	-1.695627 
337.500000	-1.451439 
338.000000	-0.874519 
338.500000	-0.221367 
339.000000	0.480076  
339.500000	0.980708  
340.000000	1.254433  
340.500000	1.386469  
341.000000	1.354368  
341.500000	1.217719  
342.000000	0.965609  
342.500000	0.783939  
343.000000	0.715494  
343.500000	0.853860  
344.000000	0.927796  
344.500000	0.838733  
345.000000	0.701435  
345.500000	0.655235  
346.000000	0.638371  
346.500000	0.435997  
347.000000	0.196896  
347.500000	0.037327  
348.000000	0.138782  
348.500000	0.318615  
349.000000	0.374570  
349.500000	0.217598  
350.000000	0.253278  
350.500000	0.350632  
351.000000	0.389681  
351.500000	0.316119  
352.000000	0.148819  
352.500000	0.043240  
353.000000	0.060628  
353.500000	0.144599  
354.000000	0.020908  
354.500000	0.129235  
355.000000	0.275839  
355.500000	0.506722  
356.000000	0.734023  
356.500000	0.884958  
357.000000	0.916138  
357.500000	1.002553  
358.000000	1.043448  
358.500000	0.844564  
359.000000	0.694365  
359.500000	0.568661  
360.000000	0.435130  
360.500000	0.365925  
361.000000	0.393554  
361.500000	0.383637  
362.000000	0.479504  
362.500000	0.561135  
363.000000	0.539063  
363.500000	0.514248  
364.000000	0.560552  
364.500000	0.441673  
365.000000	0.291234  
365.500000	0.252052  
366.000000	0.212038  
366.500000	0.304877  
367.000000	0.491333  
367.500000	0.636482  
368.000000	0.825620  
368.500000	1.113775  
369.000000	1.187877  
369.500000	1.111603  
370.000000	1.033241  
370.500000	0.936060  
371.000000	0.860830  
371.500000	0.845403  
372.000000	0.819955  
372.500000	0.897192  
373.000000	1.076267  
373.500000	1.113109  
374.000000	1.049241  
374.500000	1.010753  
375.000000	0.936159  
375.500000	0.841759  
376.000000	0.753056  
376.500000	0.609867  
377.000000	0.513457  
377.500000	0.472552  
378.000000	0.353346  
378.500000	0.186448  
379.000000	0.110493  
379.500000	0.088557  
380.000000	0.143268  
380.500000	0.266214  
381.000000	0.400577  
381.500000	0.589249  
382.000000	0.785951  
382.500000	0.869037  
383.000000	0.882474  
383.500000	0.856922  
384.000000	0.797722  
384.500000	0.680091  
385.000000	0.616163  
385.500000	0.561225  
386.000000	0.600239  
386.500000	0.702977  
387.000000	0.788415  
387.500000	0.875535  
388.000000	0.972513  
388.500000	1.055937  
389.000000	1.086558  
389.500000	1.084083  
390.000000	1.044125  
390.500000	1.040137  
391.000000	1.034945  
391.500000	1.032918  
392.000000	1.071208  
392.500000	1.151745  
393.000000	1.198415  
393.500000	1.222211  
394.000000	1.239166  
394.500000	1.260306  
395.000000	1.264028  
395.500000	1.205224  
396.000000	1.123099  
396.500000	1.088683  
397.000000	1.070826  
397.500000	1.012165  
398.000000	0.981944  
398.500000	0.989974  
399.000000	1.064511  
399.500000	1.125148  
400.000000	1.155194  
400.500000	1.116513  
401.000000	1.109666  
401.500000	1.108373  
402.000000	1.055650  
402.500000	1.001527  
403.000000	0.974914  
403.500000	1.000689  
404.000000	0.995254  
404.500000	0.990160  
405.000000	0.964940  
405.500000	0.973577  
406.000000	0.983836  
406.500000	0.950563  
407.000000	0.906681  
407.500000	0.885366  
408.000000	0.905118  
408.500000	0.915871  
409.000000	0.933592  
409.500000	0.965413  
410.000000	1.023343  
410.500000	1.076527  
411.000000	1.102553  
411.500000	1.071180  
412.000000	0.989725  
412.500000	0.888461  
413.000000	0.791655  
413.500000	0.693934  
414.000000	0.615683  
414.500000	0.602781  
415.000000	0.621957  
415.500000	0.713121  
416.000000	0.818630  
416.500000	0.904012  
417.000000	0.965818  
417.500000	0.996596  
418.000000	1.003369  
418.500000	0.968806  
419.000000	0.907601  
419.500000	0.816628  
420.000000	0.762592  
420.500000	0.757430  
421.000000	0.783363  
421.500000	0.834354  
422.000000	0.896579  
422.500000	0.949782  
423.000000	0.974273  
423.500000	0.929424  
424.000000	0.819352  
424.500000	0.693204  
425.000000	0.585249  
425.500000	0.516966  
426.000000	0.499816  
426.500000	0.549318  
427.000000	0.643130  
427.500000	0.763105  
428.000000	0.860090  
428.500000	0.913082  
429.000000	0.925555  
429.500000	0.907286  
430.000000	0.877198  
430.500000	0.817496  
431.000000	0.795787  
431.500000	0.802483  
432.000000	0.830377  
432.500000	0.856406  
433.000000	0.871403  
433.500000	0.867413  
434.000000	0.859382  
434.500000	0.848497  
435.000000	0.818040  
435.500000	0.806322  
436.000000	0.801133  
436.500000	0.798734  
437.000000	0.802307  
437.500000	0.801529  
438.000000	0.781539  
438.500000	0.759639  
439.000000	0.729527  
439.500000	0.703131  
440.000000	0.699211  
440.500000	0.703247  
441.000000	0.714187  
441.500000	0.734854  
442.000000	0.756676  
442.500000	0.760318  
443.000000	0.761765  
443.500000	0.753512  
444.000000	0.760522  
444.500000	0.771763  

