PE FL                   SPECTRUM    ASCII       PEDS        1.60        
  -1
PM5772~1
23/10/12
11:29:54.00
23/10/12
11:29:54.00


444.500000
1









LS55
20.00
5.00
5.00
SCAN
1
20
100
500
0
500
0
2
0
1
7
ON
500 450 
1 0 0
#HDR
-1
-1
#GR
NM

0.00002384185791015625
0.0
250.000000
0.500000
390
8
4.977515
-4.402739
#DATA
250.000000	-0.000000 
250.500000	0.746551  
251.000000	1.770403  
251.500000	3.005383  
252.000000	3.895846  
252.500000	4.878858  
253.000000	4.977515  
253.500000	4.734004  
254.000000	3.775832  
254.500000	2.575457  
255.000000	1.110169  
255.500000	-0.093598 
256.000000	-0.784810 
256.500000	-1.188130 
257.000000	-1.178040 
257.500000	-1.205691 
258.000000	-1.153570 
258.500000	-1.504138 
259.000000	-1.898399 
259.500000	-2.654297 
260.000000	-3.462862 
260.500000	-4.009537 
261.000000	-4.216838 
261.500000	-4.243218 
262.000000	-4.170715 
262.500000	-4.084326 
263.000000	-4.402739 
263.500000	-4.373741 
264.000000	-4.104419 
264.500000	-3.839621 
265.000000	-3.450803 
265.500000	-2.807337 
266.000000	-1.929958 
266.500000	-1.119118 
267.000000	-0.297798 
267.500000	-0.075847 
268.000000	-0.007868 
268.500000	-0.108216 
269.000000	-0.701508 
269.500000	-1.488563 
270.000000	-2.232306 
270.500000	-2.670505 
271.000000	-2.832118 
271.500000	-2.516021 
272.000000	-2.413589 
272.500000	-2.233338 
273.000000	-1.655414 
273.500000	-1.278246 
274.000000	-0.978688 
274.500000	-0.646918 
275.000000	-0.351359 
275.500000	0.212560  
276.000000	1.123836  
276.500000	1.674829  
277.000000	1.971875  
277.500000	2.140146  
278.000000	2.016393  
278.500000	1.792169  
279.000000	1.482302  
279.500000	0.733225  
280.000000	0.045226  
280.500000	-0.105964 
281.000000	-0.370674 
281.500000	-0.507845 
282.000000	-0.491123 
282.500000	-0.307193 
283.000000	-0.023668 
283.500000	0.459290  
284.000000	0.673442  
284.500000	0.389246  
285.000000	0.189599  
285.500000	-0.013178 
286.000000	-0.204143 
286.500000	-0.202340 
287.000000	0.142190  
287.500000	0.688491  
288.000000	1.553896  
288.500000	2.456073  
289.000000	2.646640  
289.500000	2.613080  
290.000000	2.488433  
290.500000	1.773966  
291.000000	0.789655  
291.500000	-0.094785 
292.000000	-0.958946 
292.500000	-1.005833 
293.000000	-0.685131 
293.500000	-0.435945 
294.000000	-0.087931 
294.500000	0.723653  
295.000000	1.660679  
295.500000	2.305056  
296.000000	2.666771  
296.500000	2.216319  
297.000000	1.816697  
297.500000	1.285965  
298.000000	0.588233  
298.500000	-0.249660 
299.000000	-1.094447 
299.500000	-1.793004 
300.000000	-2.209075 
300.500000	-2.356679 
301.000000	-2.810484 
301.500000	-3.030873 
302.000000	-2.949523 
302.500000	-2.534196 
303.000000	-1.858473 
303.500000	-1.237231 
304.000000	-0.939450 
304.500000	-0.680341 
305.000000	-0.523107 
305.500000	-0.500438 
306.000000	-0.783365 
306.500000	-1.058394 
307.000000	-1.350000 
307.500000	-1.258022 
308.000000	-0.843302 
308.500000	-0.510569 
309.000000	-0.034815 
309.500000	0.333108  
310.000000	0.559903  
310.500000	0.472457  
311.000000	0.227382  
311.500000	-0.155537 
312.000000	-0.338093 
312.500000	-0.449918 
313.000000	-0.429420 
313.500000	-0.200720 
314.000000	0.119404  
314.500000	0.415099  
315.000000	0.581422  
315.500000	0.442636  
316.000000	0.242364  
316.500000	0.059967  
317.000000	-0.274107 
317.500000	-0.735363 
318.000000	-1.002938 
318.500000	-0.958467 
319.000000	-0.806648 
319.500000	-0.649568 
320.000000	-0.449944 
320.500000	-0.067365 
321.000000	0.548269  
321.500000	1.229313  
322.000000	1.647192  
322.500000	2.034022  
323.000000	2.350010  
323.500000	2.469027  
324.000000	2.128505  
324.500000	1.768027  
325.000000	1.465133  
325.500000	1.188870  
326.000000	1.163033  
326.500000	1.002980  
327.000000	0.823731  
327.500000	0.763833  
328.000000	0.790799  
328.500000	0.535193  
329.000000	0.336034  
329.500000	0.350625  
330.000000	0.253315  
330.500000	0.219658  
331.000000	0.150720  
331.500000	0.037360  
332.000000	-0.024708 
332.500000	-0.045960 
333.000000	-0.150083 
333.500000	-0.334219 
334.000000	-0.198046 
334.500000	-0.138223 
335.000000	-0.068427 
335.500000	0.021721  
336.000000	0.042126  
336.500000	-0.016668 
337.000000	0.035463  
337.500000	0.167100  
338.000000	0.225657  
338.500000	0.559107  
339.000000	0.851879  
339.500000	1.014923  
340.000000	1.063359  
340.500000	0.975386  
341.000000	0.732880  
341.500000	0.499164  
342.000000	0.156707  
342.500000	-0.135755 
343.000000	-0.172084 
343.500000	-0.161657 
344.000000	-0.138541 
344.500000	-0.066611 
345.000000	0.144889  
345.500000	0.407396  
346.000000	0.671307  
346.500000	0.721320  
347.000000	0.695899  
347.500000	0.632841  
348.000000	0.507100  
348.500000	0.378810  
349.000000	0.106420  
349.500000	-0.024173 
350.000000	0.015257  
350.500000	0.168071  
351.000000	0.329422  
351.500000	0.591361  
352.000000	0.812938  
352.500000	0.961144  
353.000000	1.097994  
353.500000	0.964655  
354.000000	0.780825  
354.500000	0.616194  
355.000000	0.518610  
355.500000	0.500861  
356.000000	0.634224  
356.500000	0.844355  
357.000000	1.079893  
357.500000	1.284197  
358.000000	1.323221  
358.500000	1.163122  
359.000000	0.806689  
359.500000	0.439494  
360.000000	0.064480  
360.500000	-0.237834 
361.000000	-0.394433 
361.500000	-0.371497 
362.000000	-0.266049 
362.500000	-0.069055 
363.000000	0.092249  
363.500000	0.136939  
364.000000	0.161308  
364.500000	0.164704  
365.000000	0.255437  
365.500000	0.402256  
366.000000	0.614131  
366.500000	0.785452  
367.000000	0.967881  
367.500000	1.165901  
368.000000	1.322862  
368.500000	1.375618  
369.000000	1.307376  
369.500000	1.278504  
370.000000	1.282212  
370.500000	1.270494  
371.000000	1.139964  
371.500000	0.907227  
372.000000	0.665563  
372.500000	0.586225  
373.000000	0.553638  
373.500000	0.471334  
374.000000	0.464070  
374.500000	0.617070  
375.000000	0.895335  
375.500000	1.086691  
376.000000	1.159478  
376.500000	1.098194  
377.000000	1.095046  
377.500000	1.090765  
378.000000	0.984379  
378.500000	0.790978  
379.000000	0.669874  
379.500000	0.632799  
380.000000	0.584708  
380.500000	0.543772  
381.000000	0.427841  
381.500000	0.392462  
382.000000	0.448963  
382.500000	0.518892  
383.000000	0.579671  
383.500000	0.724917  
384.000000	0.919815  
384.500000	1.080649  
385.000000	1.238331  
385.500000	1.304973  
386.000000	1.313322  
386.500000	1.301810  
387.000000	1.228847  
387.500000	1.072602  
388.000000	0.876431  
388.500000	0.656561  
389.000000	0.423563  
389.500000	0.289995  
390.000000	0.203100  
390.500000	0.183014  
391.000000	0.278643  
391.500000	0.457108  
392.000000	0.668224  
392.500000	0.881290  
393.000000	1.060522  
393.500000	1.177684  
394.000000	1.292005  
394.500000	1.322145  
395.000000	1.261914  
395.500000	1.186093  
396.000000	1.107223  
396.500000	1.083438  
397.000000	1.091137  
397.500000	1.099323  
398.000000	1.132091  
398.500000	1.240325  
399.000000	1.352952  
399.500000	1.393580  
400.000000	1.429421  
400.500000	1.391327  
401.000000	1.302412  
401.500000	1.183753  
402.000000	1.077171  
402.500000	0.953156  
403.000000	0.894518  
403.500000	0.906481  
404.000000	0.889123  
404.500000	0.911977  
405.000000	0.907131  
405.500000	0.879376  
406.000000	0.841641  
406.500000	0.907904  
407.000000	0.994419  
407.500000	1.060530  
408.000000	1.151064  
408.500000	1.211643  
409.000000	1.237238  
409.500000	1.208921  
410.000000	1.099954  
410.500000	0.936976  
411.000000	0.874137  
411.500000	0.878188  
412.000000	0.902023  
412.500000	0.979995  
413.000000	1.120843  
413.500000	1.266611  
414.000000	1.389834  
414.500000	1.439056  
415.000000	1.379034  
415.500000	1.288839  
416.000000	1.220390  
416.500000	1.150193  
417.000000	1.095101  
417.500000	1.058262  
418.000000	1.054352  
418.500000	1.106921  
419.000000	1.162208  
419.500000	1.168720  
420.000000	1.159688  
420.500000	1.147499  
421.000000	1.131227  
421.500000	1.119924  
422.000000	1.076787  
422.500000	1.018671  
423.000000	0.976168  
423.500000	0.943093  
424.000000	0.884341  
424.500000	0.831027  
425.000000	0.788001  
425.500000	0.746441  
426.000000	0.757464  
426.500000	0.798933  
427.000000	0.857790  
427.500000	0.912306  
428.000000	0.965421  
428.500000	0.979313  
429.000000	0.989855  
429.500000	1.000538  
430.000000	0.975468  
430.500000	0.937600  
431.000000	0.898909  
431.500000	0.875417  
432.000000	0.847040  
432.500000	0.813948  
433.000000	0.763223  
433.500000	0.716365  
434.000000	0.698989  
434.500000	0.674129  
435.000000	0.681141  
435.500000	0.697962  
436.000000	0.731633  
436.500000	0.776002  
437.000000	0.821503  
437.500000	0.868491  
438.000000	0.891892  
438.500000	0.908655  
439.000000	0.916522  
439.500000	0.929477  
440.000000	0.929940  
440.500000	0.916056  
441.000000	0.897620  
441.500000	0.874985  
442.000000	0.871599  
442.500000	0.865033  
443.000000	0.871700  
443.500000	0.890613  
444.000000	0.912313  
444.500000	0.940505  

