PE FL                   SPECTRUM    ASCII       PEDS        1.60        
  -1
PM1782~1
23/10/12
11:33:57.00
23/10/12
11:33:57.00


444.500000
1









LS55
50.00
5.00
5.00
SCAN
1
20
100
500
0
500
0
2
0
1
7
ON
500 450 
1 0 0
#HDR
-1
-1
#GR
NM

0.00002384185791015625
0.0
250.000000
0.500000
390
8
4.062945
-4.999999
#DATA
250.000000	-4.999999 
250.500000	-3.156298 
251.000000	-1.464876 
251.500000	-0.069643 
252.000000	0.732711  
252.500000	1.216645  
253.000000	1.208664  
253.500000	1.407880  
254.000000	1.562337  
254.500000	1.227895  
255.000000	0.683203  
255.500000	-0.000242 
256.000000	-0.519440 
256.500000	-0.858205 
257.000000	-0.920077 
257.500000	-1.073179 
258.000000	-0.944781 
258.500000	-0.532961 
259.000000	-0.565002 
259.500000	-0.922823 
260.000000	-1.415520 
260.500000	-2.032472 
261.000000	-2.613200 
261.500000	-2.876480 
262.000000	-3.201102 
262.500000	-3.165864 
263.000000	-2.643710 
263.500000	-2.189274 
264.000000	-2.012889 
264.500000	-1.817400 
265.000000	-1.596726 
265.500000	-1.658600 
266.000000	-1.711205 
266.500000	-2.011053 
267.000000	-2.357448 
267.500000	-2.588374 
268.000000	-2.700632 
268.500000	-2.837628 
269.000000	-2.956757 
269.500000	-3.029151 
270.000000	-3.066882 
270.500000	-3.015709 
271.000000	-3.116005 
271.500000	-3.149884 
272.000000	-3.088217 
272.500000	-2.597467 
273.000000	-1.778943 
273.500000	-1.198609 
274.000000	-0.721870 
274.500000	-0.278456 
275.000000	0.164941  
275.500000	0.200531  
276.000000	-0.023941 
276.500000	-0.467936 
277.000000	-0.545140 
277.500000	-0.484240 
278.000000	-0.692574 
278.500000	-0.989443 
279.000000	-1.008669 
279.500000	-0.401772 
280.000000	0.115154  
280.500000	0.585008  
281.000000	0.727610  
281.500000	1.181640  
282.000000	1.527874  
282.500000	1.268794  
283.000000	0.760281  
283.500000	0.132833  
284.000000	-0.343055 
284.500000	-1.069012 
285.000000	-1.521738 
285.500000	-1.923766 
286.000000	-1.777103 
286.500000	-1.394568 
287.000000	-1.175710 
287.500000	-0.957369 
288.000000	-0.393831 
288.500000	0.185774  
289.000000	0.180123  
289.500000	0.246174  
290.000000	0.273862  
290.500000	0.439034  
291.000000	0.673072  
291.500000	0.718417  
292.000000	0.815643  
292.500000	1.164872  
293.000000	1.623700  
293.500000	1.530152  
294.000000	1.125079  
294.500000	0.584898  
295.000000	0.034561  
295.500000	-0.760361 
296.000000	-1.639584 
296.500000	-2.685181 
297.000000	-3.410365 
297.500000	-3.709716 
298.000000	-3.561724 
298.500000	-3.113273 
299.000000	-2.325279 
299.500000	-1.076928 
300.000000	0.173901  
300.500000	1.284997  
301.000000	2.034853  
301.500000	2.686851  
302.000000	3.170143  
302.500000	3.350551  
303.000000	3.528475  
303.500000	3.645968  
304.000000	3.830350  
304.500000	3.748702  
305.000000	3.707911  
305.500000	3.353884  
306.000000	3.299800  
306.500000	3.540834  
307.000000	3.129390  
307.500000	3.002549  
308.000000	3.223891  
308.500000	3.453365  
309.000000	3.292667  
309.500000	3.061448  
310.000000	2.507277  
310.500000	2.055391  
311.000000	2.174529  
311.500000	1.572852  
312.000000	1.082188  
312.500000	1.203798  
313.000000	1.531732  
313.500000	1.635672  
314.000000	1.996179  
314.500000	2.089139  
315.000000	2.411009  
315.500000	3.025541  
316.000000	3.348109  
316.500000	3.523673  
317.000000	3.802217  
317.500000	3.950007  
318.000000	3.961372  
318.500000	4.062945  
319.000000	3.680229  
319.500000	3.396879  
320.000000	2.891757  
320.500000	2.500729  
321.000000	2.115456  
321.500000	1.802321  
322.000000	1.688673  
322.500000	1.614172  
323.000000	1.693004  
323.500000	1.532211  
324.000000	1.576928  
324.500000	1.445072  
325.000000	1.421021  
325.500000	1.396855  
326.000000	1.379797  
326.500000	1.584311  
327.000000	1.767790  
327.500000	1.855767  
328.000000	1.796140  
328.500000	1.738299  
329.000000	1.537314  
329.500000	1.361152  
330.000000	1.064570  
330.500000	0.691423  
331.000000	0.526779  
331.500000	0.402673  
332.000000	0.221473  
332.500000	-0.054179 
333.000000	-0.171441 
333.500000	-0.249616 
334.000000	-0.184848 
334.500000	-0.151198 
335.000000	-0.025488 
335.500000	0.086363  
336.000000	0.302485  
336.500000	0.585159  
337.000000	0.633442  
337.500000	0.888355  
338.000000	1.098491  
338.500000	1.377395  
339.000000	1.476670  
339.500000	1.624568  
340.000000	1.600578  
340.500000	1.517535  
341.000000	1.475248  
341.500000	1.140144  
342.000000	1.040638  
342.500000	0.964776  
343.000000	0.895035  
343.500000	0.663318  
344.000000	0.484276  
344.500000	0.279984  
345.000000	0.006356  
345.500000	-0.144798 
346.000000	-0.384161 
346.500000	-0.269393 
347.000000	0.022294  
347.500000	0.385312  
348.000000	0.734112  
348.500000	0.968169  
349.000000	1.203630  
349.500000	1.333894  
350.000000	1.397249  
350.500000	1.245930  
351.000000	1.164082  
351.500000	1.119495  
352.000000	1.068060  
352.500000	1.052486  
353.000000	0.943881  
353.500000	0.923848  
354.000000	0.997047  
354.500000	1.088742  
355.000000	1.150835  
355.500000	1.262224  
356.000000	1.389033  
356.500000	1.528814  
357.000000	1.667595  
357.500000	1.661995  
358.000000	1.585583  
358.500000	1.554778  
359.000000	1.436161  
359.500000	1.318908  
360.000000	1.220709  
360.500000	1.191949  
361.000000	1.224288  
361.500000	1.315276  
362.000000	1.388419  
362.500000	1.512911  
363.000000	1.740347  
363.500000	1.921518  
364.000000	2.071869  
364.500000	2.196295  
365.000000	2.352645  
365.500000	2.466077  
366.000000	2.518897  
366.500000	2.464162  
367.000000	2.269740  
367.500000	2.047016  
368.000000	1.825318  
368.500000	1.641777  
369.000000	1.457112  
369.500000	1.407264  
370.000000	1.568828  
370.500000	1.812975  
371.000000	2.107810  
371.500000	2.306983  
372.000000	2.384415  
372.500000	2.395145  
373.000000	2.380286  
373.500000	2.231722  
374.000000	2.000224  
374.500000	1.892768  
375.000000	1.819417  
375.500000	1.930536  
376.000000	2.101457  
376.500000	2.270426  
377.000000	2.342514  
377.500000	2.441269  
378.000000	2.505179  
378.500000	2.451693  
379.000000	2.418648  
379.500000	2.312239  
380.000000	2.255131  
380.500000	2.258061  
381.000000	2.341473  
381.500000	2.340167  
382.000000	2.286923  
382.500000	2.197318  
383.000000	2.128601  
383.500000	2.059087  
384.000000	1.944655  
384.500000	1.829311  
385.000000	1.765417  
385.500000	1.899324  
386.000000	2.024952  
386.500000	2.114093  
387.000000	2.168926  
387.500000	2.215434  
388.000000	2.231817  
388.500000	2.239619  
389.000000	2.187353  
389.500000	2.117108  
390.000000	2.127574  
390.500000	2.135248  
391.000000	2.159148  
391.500000	2.188046  
392.000000	2.239667  
392.500000	2.298261  
393.000000	2.364715  
393.500000	2.392547  
394.000000	2.355762  
394.500000	2.362875  
395.000000	2.328369  
395.500000	2.294456  
396.000000	2.239604  
396.500000	2.188020  
397.000000	2.104284  
397.500000	2.007133  
398.000000	1.916614  
398.500000	1.851311  
399.000000	1.846703  
399.500000	1.921496  
400.000000	2.018207  
400.500000	2.079415  
401.000000	2.166187  
401.500000	2.216601  
402.000000	2.241023  
402.500000	2.204438  
403.000000	2.081866  
403.500000	1.923148  
404.000000	1.832306  
404.500000	1.755108  
405.000000	1.692959  
405.500000	1.724651  
406.000000	1.801414  
406.500000	1.915167  
407.000000	1.989078  
407.500000	1.971569  
408.000000	1.866123  
408.500000	1.765829  
409.000000	1.641240  
409.500000	1.506821  
410.000000	1.378407  
410.500000	1.284680  
411.000000	1.242467  
411.500000	1.253454  
412.000000	1.217014  
412.500000	1.180415  
413.000000	1.152994  
413.500000	1.140365  
414.000000	1.167432  
414.500000	1.207597  
415.000000	1.252747  
415.500000	1.280542  
416.000000	1.315570  
416.500000	1.272429  
417.000000	1.187274  
417.500000	1.063445  
418.000000	0.921394  
418.500000	0.821095  
419.000000	0.784603  
419.500000	0.783949  
420.000000	0.805784  
420.500000	0.879372  
421.000000	0.944292  
421.500000	1.006233  
422.000000	1.049575  
422.500000	1.060955  
423.000000	1.063978  
423.500000	1.076820  
424.000000	1.075531  
424.500000	1.050187  
425.000000	0.993009  
425.500000	0.916795  
426.000000	0.823673  
426.500000	0.718670  
427.000000	0.631426  
427.500000	0.574825  
428.000000	0.546471  
428.500000	0.544828  
429.000000	0.554486  
429.500000	0.561056  
430.000000	0.568837  
430.500000	0.563045  
431.000000	0.548639  
431.500000	0.539078  
432.000000	0.556705  
432.500000	0.598291  
433.000000	0.651894  
433.500000	0.697035  
434.000000	0.725704  
434.500000	0.737601  
435.000000	0.721123  
435.500000	0.683293  
436.000000	0.632857  
436.500000	0.588424  
437.000000	0.567128  
437.500000	0.567440  
438.000000	0.571005  
438.500000	0.590526  
439.000000	0.634104  
439.500000	0.691613  
440.000000	0.751962  
440.500000	0.789752  
441.000000	0.827622  
441.500000	0.846957  
442.000000	0.844804  
442.500000	0.806461  
443.000000	0.736659  
443.500000	0.665881  
444.000000	0.597144  
444.500000	0.540185  

