PE FL                   SPECTRUM    ASCII       PEDS        1.60        
  -1
PM3772~1
23/10/12
11:28:33.00
23/10/12
11:28:33.00


444.500000
1









LS55
10.00
5.00
5.00
SCAN
1
20
100
500
0
500
0
2
0
1
7
ON
500 450 
1 0 0
#HDR
-1
-1
#GR
NM

0.00002384185791015625
0.0
250.000000
0.500000
390
8
3.811209
-4.310005
#DATA
250.000000	-4.216000 
250.500000	-4.087546 
251.000000	-3.925022 
251.500000	-3.535512 
252.000000	-2.960715 
252.500000	-2.284992 
253.000000	-1.362974 
253.500000	-0.737938 
254.000000	-0.394487 
254.500000	-0.661876 
255.000000	-0.722676 
255.500000	-0.821903 
256.000000	-0.904813 
256.500000	-1.224761 
257.000000	-1.791342 
257.500000	-1.780931 
258.000000	-1.685154 
258.500000	-1.296473 
259.000000	-1.393184 
259.500000	-1.319294 
260.000000	-1.059575 
260.500000	-0.737242 
261.000000	-0.645049 
261.500000	-1.289271 
262.000000	-1.926735 
262.500000	-2.611228 
263.000000	-2.958227 
263.500000	-3.448850 
264.000000	-3.877271 
264.500000	-4.234483 
265.000000	-4.310005 
265.500000	-3.969381 
266.000000	-3.772184 
266.500000	-3.485097 
267.000000	-3.269228 
267.500000	-3.105729 
268.000000	-2.871587 
268.500000	-2.668637 
269.000000	-2.874966 
269.500000	-3.070892 
270.000000	-3.208398 
270.500000	-3.236630 
271.000000	-3.102099 
271.500000	-2.947667 
272.000000	-2.903723 
272.500000	-2.638497 
273.000000	-1.891785 
273.500000	-1.303031 
274.000000	-0.871319 
274.500000	-0.477452 
275.000000	-0.081607 
275.500000	0.510322  
276.000000	0.960890  
276.500000	0.899782  
277.000000	0.601706  
277.500000	0.445909  
278.000000	0.313120  
278.500000	-0.110552 
279.000000	-0.488417 
279.500000	-0.872069 
280.000000	-0.651498 
280.500000	-0.081547 
281.000000	0.553287  
281.500000	1.158753  
282.000000	1.742395  
282.500000	2.332848  
283.000000	2.224488  
283.500000	1.901207  
284.000000	1.001122  
284.500000	0.110584  
285.000000	-0.683376 
285.500000	-1.297304 
286.000000	-1.739130 
286.500000	-2.118279 
287.000000	-2.298635 
287.500000	-2.317400 
288.000000	-2.039281 
288.500000	-1.853396 
289.000000	-1.534205 
289.500000	-1.252245 
290.000000	-0.875415 
290.500000	-0.596757 
291.000000	-0.763603 
291.500000	-1.460178 
292.000000	-2.063532 
292.500000	-2.543096 
293.000000	-2.931339 
293.500000	-3.116006 
294.000000	-3.232234 
294.500000	-2.877933 
295.000000	-2.147407 
295.500000	-1.403907 
296.000000	-1.193710 
296.500000	-0.969262 
297.000000	-0.524178 
297.500000	-0.049939 
298.000000	0.331223  
298.500000	0.357275  
299.000000	0.414519  
299.500000	0.645134  
300.000000	0.863773  
300.500000	0.803908  
301.000000	0.373230  
301.500000	0.157345  
302.000000	0.042767  
302.500000	-0.075046 
303.000000	-0.385715 
303.500000	-0.929302 
304.000000	-1.456839 
304.500000	-1.749778 
305.000000	-1.845283 
305.500000	-2.090160 
306.000000	-1.817260 
306.500000	-1.206174 
307.000000	-0.398249 
307.500000	0.723647  
308.000000	1.599597  
308.500000	2.287293  
309.000000	2.962536  
309.500000	3.360874  
310.000000	3.131060  
310.500000	2.777151  
311.000000	2.272823  
311.500000	1.696746  
312.000000	1.431250  
312.500000	0.940551  
313.000000	0.274332  
313.500000	-0.111483 
314.000000	-0.273741 
314.500000	-0.466112 
315.000000	-0.382807 
315.500000	-0.030240 
316.000000	0.400168  
316.500000	1.134367  
317.000000	1.704628  
317.500000	2.158252  
318.000000	2.460890  
318.500000	2.612182  
319.000000	2.423458  
319.500000	1.945939  
320.000000	1.500423  
320.500000	1.113377  
321.000000	0.823104  
321.500000	0.450882  
322.000000	0.409254  
322.500000	0.548035  
323.000000	0.872289  
323.500000	1.114510  
324.000000	1.360844  
324.500000	1.734495  
325.000000	2.302871  
325.500000	2.862274  
326.000000	3.140656  
326.500000	3.402290  
327.000000	3.464275  
327.500000	3.462281  
328.000000	3.138322  
328.500000	2.801354  
329.000000	2.458513  
329.500000	2.425687  
330.000000	2.614974  
330.500000	2.933823  
331.000000	3.355913  
331.500000	3.644627  
332.000000	3.811209  
332.500000	3.546163  
333.000000	3.184967  
333.500000	2.572984  
334.000000	1.868897  
334.500000	1.130436  
335.000000	0.587355  
335.500000	0.247862  
336.000000	0.046216  
336.500000	0.046423  
337.000000	0.150307  
337.500000	0.387283  
338.000000	0.690114  
338.500000	1.068711  
339.000000	1.393313  
339.500000	1.751929  
340.000000	2.001531  
340.500000	2.128189  
341.000000	2.152397  
341.500000	2.161476  
342.000000	2.115173  
342.500000	1.990460  
343.000000	1.872102  
343.500000	1.700266  
344.000000	1.570493  
344.500000	1.479017  
345.000000	1.378892  
345.500000	1.330861  
346.000000	1.438347  
346.500000	1.560155  
347.000000	1.583926  
347.500000	1.641527  
348.000000	1.692194  
348.500000	1.702782  
349.000000	1.661365  
349.500000	1.557231  
350.000000	1.445584  
350.500000	1.413276  
351.000000	1.443537  
351.500000	1.472509  
352.000000	1.567154  
352.500000	1.734429  
353.000000	1.857630  
353.500000	1.921405  
354.000000	1.889637  
354.500000	1.840209  
355.000000	1.829507  
355.500000	1.790948  
356.000000	1.769943  
356.500000	1.750021  
357.000000	1.775309  
357.500000	1.836022  
358.000000	1.802384  
358.500000	1.699286  
359.000000	1.497731  
359.500000	1.285924  
360.000000	1.045756  
360.500000	1.005323  
361.000000	1.011787  
361.500000	1.086298  
362.000000	1.313598  
362.500000	1.526763  
363.000000	1.800728  
363.500000	2.028895  
364.000000	2.197039  
364.500000	2.276347  
365.000000	2.443296  
365.500000	2.586869  
366.000000	2.639151  
366.500000	2.733373  
367.000000	2.723148  
367.500000	2.712453  
368.000000	2.643691  
368.500000	2.456149  
369.000000	2.177602  
369.500000	1.995074  
370.000000	1.839320  
370.500000	1.634854  
371.000000	1.512828  
371.500000	1.436091  
372.000000	1.459442  
372.500000	1.510110  
373.000000	1.561829  
373.500000	1.636036  
374.000000	1.779223  
374.500000	1.986263  
375.000000	2.100678  
375.500000	2.132358  
376.000000	2.082576  
376.500000	2.031967  
377.000000	1.933019  
377.500000	1.852495  
378.000000	1.751115  
378.500000	1.643097  
379.000000	1.580079  
379.500000	1.464554  
380.000000	1.375260  
380.500000	1.231572  
381.000000	1.090150  
381.500000	0.905796  
382.000000	0.825234  
382.500000	0.845259  
383.000000	0.961855  
383.500000	1.129968  
384.000000	1.238011  
384.500000	1.375113  
385.000000	1.476420  
385.500000	1.532214  
386.000000	1.496177  
386.500000	1.508773  
387.000000	1.576920  
387.500000	1.746618  
388.000000	1.930712  
388.500000	2.034847  
389.000000	2.089595  
389.500000	2.080787  
390.000000	2.048051  
390.500000	1.915455  
391.000000	1.764308  
391.500000	1.643452  
392.000000	1.614400  
392.500000	1.589267  
393.000000	1.607894  
393.500000	1.648751  
394.000000	1.713855  
394.500000	1.830288  
395.000000	1.879816  
395.500000	1.875761  
396.000000	1.836085  
396.500000	1.785221  
397.000000	1.648258  
397.500000	1.513209  
398.000000	1.344179  
398.500000	1.208065  
399.000000	1.149540  
399.500000	1.126595  
400.000000	1.145173  
400.500000	1.222426  
401.000000	1.347420  
401.500000	1.464098  
402.000000	1.597806  
402.500000	1.680025  
403.000000	1.756712  
403.500000	1.807434  
404.000000	1.813123  
404.500000	1.767946  
405.000000	1.693219  
405.500000	1.573544  
406.000000	1.451228  
406.500000	1.368340  
407.000000	1.289232  
407.500000	1.276811  
408.000000	1.273509  
408.500000	1.302923  
409.000000	1.366370  
409.500000	1.414342  
410.000000	1.455316  
410.500000	1.519087  
411.000000	1.575027  
411.500000	1.606125  
412.000000	1.648068  
412.500000	1.645604  
413.000000	1.640303  
413.500000	1.688013  
414.000000	1.728872  
414.500000	1.768525  
415.000000	1.814288  
415.500000	1.849657  
416.000000	1.876110  
416.500000	1.883328  
417.000000	1.819701  
417.500000	1.726929  
418.000000	1.638387  
418.500000	1.519891  
419.000000	1.405614  
419.500000	1.340263  
420.000000	1.293828  
420.500000	1.286303  
421.000000	1.318940  
421.500000	1.345284  
422.000000	1.381669  
422.500000	1.411189  
423.000000	1.420458  
423.500000	1.388672  
424.000000	1.373249  
424.500000	1.356626  
425.000000	1.345831  
425.500000	1.350043  
426.000000	1.374649  
426.500000	1.424443  
427.000000	1.462068  
427.500000	1.495777  
428.000000	1.490488  
428.500000	1.484222  
429.000000	1.461593  
429.500000	1.427775  
430.000000	1.375546  
430.500000	1.331735  
431.000000	1.317333  
431.500000	1.290350  
432.000000	1.283585  
432.500000	1.296140  
433.000000	1.325106  
433.500000	1.348155  
434.000000	1.384246  
434.500000	1.386661  
435.000000	1.376848  
435.500000	1.368988  
436.000000	1.342296  
436.500000	1.309971  
437.000000	1.292753  
437.500000	1.305075  
438.000000	1.343085  
438.500000	1.408462  
439.000000	1.443494  
439.500000	1.451956  
440.000000	1.452480  
440.500000	1.430994  
441.000000	1.381119  
441.500000	1.320550  
442.000000	1.265302  
442.500000	1.241681  
443.000000	1.249734  
443.500000	1.270076  
444.000000	1.283985  
444.500000	1.313474  

