PE FL                   SPECTRUM    ASCII       PEDS        1.60        
  -1
PM3F57~1
23/10/10
11:09:57.00
23/10/10
11:09:57.00


444.500000
1









LS55
20.00
5.00
5.00
SCAN
1
20
100
100
0
500
0
2
0
1
7
ON
500 450 
1 0 0
#HDR
-1
-1
#GR
NM

0.00002384185791015625
0.0
300.000000
0.500000
290
8
88.424999
-4.112000
#DATA
300.000000	-4.112000 
300.500000	-2.933229 
301.000000	-1.864270 
301.500000	-1.169181 
302.000000	-0.974907 
302.500000	-0.831247 
303.000000	-0.843135 
303.500000	-0.704919 
304.000000	-0.490553 
304.500000	-0.197060 
305.000000	0.241047  
305.500000	0.951833  
306.000000	1.632026  
306.500000	2.033727  
307.000000	2.221584  
307.500000	2.018891  
308.000000	1.942486  
308.500000	1.786124  
309.000000	1.581333  
309.500000	1.463022  
310.000000	1.796359  
310.500000	2.606097  
311.000000	3.704244  
311.500000	5.148160  
312.000000	6.650378  
312.500000	8.455197  
313.000000	10.297233 
313.500000	11.907471 
314.000000	13.207406 
314.500000	13.944073 
315.000000	14.697878 
315.500000	15.531107 
316.000000	16.582858 
316.500000	17.577421 
317.000000	18.832621 
317.500000	20.029683 
318.000000	21.445073 
318.500000	23.155854 
319.000000	24.443986 
319.500000	26.070253 
320.000000	28.234807 
320.500000	31.068156 
321.000000	34.261171 
321.500000	37.879120 
322.000000	41.476764 
322.500000	45.282017 
323.000000	49.317062 
323.500000	52.516552 
324.000000	55.338665 
324.500000	58.179902 
325.000000	60.995768 
325.500000	63.908483 
326.000000	67.259930 
326.500000	70.686767 
327.000000	74.421912 
327.500000	78.316609 
328.000000	81.642143 
328.500000	84.240629 
329.000000	86.261972 
329.500000	87.758896 
330.000000	88.410369 
330.500000	88.424999 
331.000000	88.046031 
331.500000	87.569200 
332.000000	87.028623 
332.500000	86.081361 
333.000000	84.814970 
333.500000	83.012054 
334.000000	81.012275 
334.500000	78.773615 
335.000000	76.024574 
335.500000	73.177971 
336.000000	70.230130 
336.500000	67.374803 
337.000000	64.265064 
337.500000	61.087774 
338.000000	57.302530 
338.500000	53.352427 
339.000000	49.551265 
339.500000	45.458506 
340.000000	41.505053 
340.500000	37.520356 
341.000000	33.845594 
341.500000	30.378226 
342.000000	27.383237 
342.500000	24.735898 
343.000000	22.319692 
343.500000	20.380352 
344.000000	18.623746 
344.500000	17.130227 
345.000000	15.628816 
345.500000	14.326901 
346.000000	13.077248 
346.500000	11.815068 
347.000000	10.697363 
347.500000	9.711384  
348.000000	8.811580  
348.500000	8.018368  
349.000000	7.287528  
349.500000	6.620044  
350.000000	5.873271  
350.500000	5.147803  
351.000000	4.426055  
351.500000	3.714746  
352.000000	3.093865  
352.500000	2.469891  
353.000000	1.900795  
353.500000	1.440580  
354.000000	1.280988  
354.500000	1.175860  
355.000000	1.193226  
355.500000	1.331766  
356.000000	1.485363  
356.500000	1.752567  
357.000000	1.907336  
357.500000	1.938469  
358.000000	1.836780  
358.500000	1.887731  
359.000000	1.886596  
359.500000	1.864373  
360.000000	1.841670  
360.500000	1.683606  
361.000000	1.597391  
361.500000	1.504841  
362.000000	1.487707  
362.500000	1.404127  
363.000000	1.337011  
363.500000	1.408689  
364.000000	1.589795  
364.500000	1.750705  
365.000000	1.768425  
365.500000	1.631576  
366.000000	1.398932  
366.500000	1.233613  
367.000000	0.965358  
367.500000	0.611886  
368.000000	0.369778  
368.500000	0.326733  
369.000000	0.386645  
369.500000	0.500002  
370.000000	0.513713  
370.500000	0.505664  
371.000000	0.502066  
371.500000	0.450480  
372.000000	0.359065  
372.500000	0.252094  
373.000000	0.221973  
373.500000	0.210025  
374.000000	0.289347  
374.500000	0.372438  
375.000000	0.523620  
375.500000	0.639364  
376.000000	0.717161  
376.500000	0.854441  
377.000000	0.914956  
377.500000	0.954384  
378.000000	0.988579  
378.500000	0.989288  
379.000000	0.959580  
379.500000	0.943230  
380.000000	0.868737  
380.500000	0.747122  
381.000000	0.723299  
381.500000	0.700129  
382.000000	0.623777  
382.500000	0.582937  
383.000000	0.539775  
383.500000	0.556977  
384.000000	0.632685  
384.500000	0.707428  
385.000000	0.790601  
385.500000	0.936337  
386.000000	1.124549  
386.500000	1.263098  
387.000000	1.371559  
387.500000	1.387208  
388.000000	1.364215  
388.500000	1.348239  
389.000000	1.237300  
389.500000	1.081034  
390.000000	0.904505  
390.500000	0.776211  
391.000000	0.714846  
391.500000	0.714786  
392.000000	0.740478  
392.500000	0.770594  
393.000000	0.881519  
393.500000	0.959791  
394.000000	1.031313  
394.500000	1.062331  
395.000000	1.020656  
395.500000	0.959651  
396.000000	0.917017  
396.500000	0.894297  
397.000000	0.896264  
397.500000	0.947021  
398.000000	0.980036  
398.500000	1.013743  
399.000000	1.049241  
399.500000	1.035802  
400.000000	0.975234  
400.500000	0.879747  
401.000000	0.798777  
401.500000	0.774290  
402.000000	0.795798  
402.500000	0.816571  
403.000000	0.856123  
403.500000	0.947177  
404.000000	1.066708  
404.500000	1.140264  
405.000000	1.162725  
405.500000	1.141814  
406.000000	1.128643  
406.500000	1.151922  
407.000000	1.139861  
407.500000	1.110487  
408.000000	1.073127  
408.500000	1.059975  
409.000000	1.013745  
409.500000	0.930370  
410.000000	0.817301  
410.500000	0.712040  
411.000000	0.661297  
411.500000	0.617845  
412.000000	0.594616  
412.500000	0.609812  
413.000000	0.657247  
413.500000	0.713669  
414.000000	0.759577  
414.500000	0.770906  
415.000000	0.780787  
415.500000	0.775561  
416.000000	0.771480  
416.500000	0.753517  
417.000000	0.764062  
417.500000	0.755244  
418.000000	0.756993  
418.500000	0.743194  
419.000000	0.712130  
419.500000	0.694257  
420.000000	0.661063  
420.500000	0.656851  
421.000000	0.666056  
421.500000	0.710356  
422.000000	0.734577  
422.500000	0.779745  
423.000000	0.829942  
423.500000	0.866166  
424.000000	0.887093  
424.500000	0.860400  
425.000000	0.809889  
425.500000	0.751328  
426.000000	0.690698  
426.500000	0.621353  
427.000000	0.589515  
427.500000	0.583800  
428.000000	0.622303  
428.500000	0.681879  
429.000000	0.752561  
429.500000	0.836413  
430.000000	0.921842  
430.500000	0.972130  
431.000000	0.976495  
431.500000	0.973738  
432.000000	0.942746  
432.500000	0.900797  
433.000000	0.852523  
433.500000	0.797983  
434.000000	0.761312  
434.500000	0.742094  
435.000000	0.731127  
435.500000	0.714003  
436.000000	0.723535  
436.500000	0.737610  
437.000000	0.760943  
437.500000	0.790073  
438.000000	0.810338  
438.500000	0.844546  
439.000000	0.883612  
439.500000	0.907112  
440.000000	0.898887  
440.500000	0.880656  
441.000000	0.857209  
441.500000	0.827360  
442.000000	0.794108  
442.500000	0.747411  
443.000000	0.722478  
443.500000	0.723291  
444.000000	0.725632  
444.500000	0.709801  

