PE FL                   SPECTRUM    ASCII       PEDS        1.60        
  -1
PM8F57~1
23/10/10
11:12:48.00
23/10/10
11:12:48.00


444.500000
1









LS55
45.00
5.00
5.00
SCAN
1
20
100
100
0
500
0
2
0
1
7
ON
500 450 
1 0 0
#HDR
-1
-1
#GR
NM

0.00002384185791015625
0.0
300.000000
0.500000
290
8
96.678923
0.063411
#DATA
300.000000	43.176000 
300.500000	43.978651 
301.000000	44.610308 
301.500000	44.936110 
302.000000	45.684745 
302.500000	46.980621 
303.000000	48.474155 
303.500000	49.578271 
304.000000	50.555044 
304.500000	51.445482 
305.000000	52.949888 
305.500000	54.541393 
306.000000	55.472458 
306.500000	56.077925 
307.000000	57.085440 
307.500000	58.661835 
308.000000	60.417301 
308.500000	61.833311 
309.000000	63.037544 
309.500000	64.191356 
310.000000	65.515563 
310.500000	66.602202 
311.000000	66.813137 
311.500000	66.883242 
312.000000	67.190264 
312.500000	67.344747 
313.000000	67.204732 
313.500000	67.357586 
314.000000	67.395107 
314.500000	67.661988 
315.000000	68.052094 
315.500000	68.232797 
316.000000	68.615953 
316.500000	69.558824 
317.000000	70.479732 
317.500000	71.855223 
318.000000	73.919232 
318.500000	76.051065 
319.000000	77.999396 
319.500000	79.336871 
320.000000	79.780913 
320.500000	79.667904 
321.000000	79.668809 
321.500000	79.680754 
322.000000	80.469029 
322.500000	82.197847 
323.000000	84.485258 
323.500000	87.331392 
324.000000	90.015607 
324.500000	92.460181 
325.000000	94.335354 
325.500000	95.664595 
326.000000	96.349647 
326.500000	96.616667 
327.000000	96.678923 
327.500000	96.640588 
328.000000	96.205671 
328.500000	94.840094 
329.000000	92.721264 
329.500000	90.244865 
330.000000	87.434547 
330.500000	84.380957 
331.000000	81.081910 
331.500000	77.461348 
332.000000	74.486919 
332.500000	71.872524 
333.000000	69.002851 
333.500000	65.699559 
334.000000	62.422615 
334.500000	59.303177 
335.000000	56.280523 
335.500000	53.247881 
336.000000	49.703299 
336.500000	46.485928 
337.000000	43.537780 
337.500000	40.899167 
338.000000	38.032194 
338.500000	35.059868 
339.000000	32.129075 
339.500000	29.230471 
340.000000	26.312195 
340.500000	23.180416 
341.000000	20.252254 
341.500000	17.540408 
342.000000	15.349797 
342.500000	13.578629 
343.000000	12.111418 
343.500000	11.012031 
344.000000	10.366601 
344.500000	9.864021  
345.000000	9.277474  
345.500000	8.742169  
346.000000	8.123311  
346.500000	7.533569  
347.000000	6.894934  
347.500000	6.162264  
348.000000	5.378048  
348.500000	4.743530  
349.000000	4.237462  
349.500000	3.777939  
350.000000	3.438745  
350.500000	3.211553  
351.000000	3.073963  
351.500000	2.991396  
352.000000	2.900165  
352.500000	2.765351  
353.000000	2.645519  
353.500000	2.585234  
354.000000	2.550197  
354.500000	2.445133  
355.000000	2.282965  
355.500000	2.132336  
356.000000	1.992309  
356.500000	1.802000  
357.000000	1.676165  
357.500000	1.554700  
358.000000	1.517984  
358.500000	1.619208  
359.000000	1.711242  
359.500000	1.796211  
360.000000	1.951458  
360.500000	2.113783  
361.000000	2.206643  
361.500000	2.288035  
362.000000	2.355248  
362.500000	2.362875  
363.000000	2.409447  
363.500000	2.418409  
364.000000	2.372740  
364.500000	2.345797  
365.000000	2.338021  
365.500000	2.339643  
366.000000	2.379459  
366.500000	2.414430  
367.000000	2.394917  
367.500000	2.254638  
368.000000	2.117017  
368.500000	1.912195  
369.000000	1.681440  
369.500000	1.493255  
370.000000	1.384986  
370.500000	1.381683  
371.000000	1.469610  
371.500000	1.676235  
372.000000	1.855321  
372.500000	2.124951  
373.000000	2.372969  
373.500000	2.482907  
374.000000	2.539504  
374.500000	2.489408  
375.000000	2.347690  
375.500000	2.127876  
376.000000	1.956947  
376.500000	1.786194  
377.000000	1.709031  
377.500000	1.729617  
378.000000	1.810859  
378.500000	1.992331  
379.000000	2.170354  
379.500000	2.281349  
380.000000	2.264940  
380.500000	2.151164  
381.000000	1.949345  
381.500000	1.652618  
382.000000	1.377429  
382.500000	1.118414  
383.000000	1.009156  
383.500000	1.016800  
384.000000	1.118349  
384.500000	1.230298  
385.000000	1.340464  
385.500000	1.448881  
386.000000	1.454338  
386.500000	1.406920  
387.000000	1.227507  
387.500000	1.058558  
388.000000	0.883897  
388.500000	0.810426  
389.000000	0.763750  
389.500000	0.730958  
390.000000	0.721599  
390.500000	0.733872  
391.000000	0.799635  
391.500000	0.782317  
392.000000	0.767704  
392.500000	0.735108  
393.000000	0.745039  
393.500000	0.774108  
394.000000	0.797920  
394.500000	0.777952  
395.000000	0.759830  
395.500000	0.741645  
396.000000	0.672296  
396.500000	0.597401  
397.000000	0.524863  
397.500000	0.502521  
398.000000	0.511852  
398.500000	0.578536  
399.000000	0.629390  
399.500000	0.654839  
400.000000	0.683336  
400.500000	0.702498  
401.000000	0.686500  
401.500000	0.678051  
402.000000	0.709108  
402.500000	0.704165  
403.000000	0.731776  
403.500000	0.743719  
404.000000	0.701307  
404.500000	0.625332  
405.000000	0.524979  
405.500000	0.401952  
406.000000	0.277562  
406.500000	0.233976  
407.000000	0.182634  
407.500000	0.186867  
408.000000	0.194208  
408.500000	0.209620  
409.000000	0.212212  
409.500000	0.220943  
410.000000	0.201676  
410.500000	0.160125  
411.000000	0.163519  
411.500000	0.144923  
412.000000	0.131037  
412.500000	0.090066  
413.000000	0.085390  
413.500000	0.070260  
414.000000	0.071613  
414.500000	0.063411  
415.000000	0.073630  
415.500000	0.086913  
416.000000	0.108448  
416.500000	0.142191  
417.000000	0.155443  
417.500000	0.164440  
418.000000	0.167493  
418.500000	0.180313  
419.000000	0.172788  
419.500000	0.187447  
420.000000	0.197526  
420.500000	0.226037  
421.000000	0.272513  
421.500000	0.329082  
422.000000	0.367740  
422.500000	0.406810  
423.000000	0.441497  
423.500000	0.448269  
424.000000	0.436877  
424.500000	0.405807  
425.000000	0.365787  
425.500000	0.328839  
426.000000	0.290615  
426.500000	0.227829  
427.000000	0.179570  
427.500000	0.152082  
428.000000	0.142941  
428.500000	0.130923  
429.000000	0.138448  
429.500000	0.160632  
430.000000	0.204755  
430.500000	0.248374  
431.000000	0.271927  
431.500000	0.290961  
432.000000	0.305959  
432.500000	0.319954  
433.000000	0.307812  
433.500000	0.283297  
434.000000	0.241380  
434.500000	0.227065  
435.000000	0.228100  
435.500000	0.224758  
436.000000	0.223663  
436.500000	0.219322  
437.000000	0.229488  
437.500000	0.242930  
438.000000	0.268369  
438.500000	0.274294  
439.000000	0.293075  
439.500000	0.321364  
440.000000	0.332973  
440.500000	0.324350  
441.000000	0.290941  
441.500000	0.254261  
442.000000	0.219764  
442.500000	0.198464  
443.000000	0.180210  
443.500000	0.179286  
444.000000	0.202397  
444.500000	0.233261  

