PE FL                   SPECTRUM    ASCII       PEDS        1.60        
  -1
PM2F57~1
23/10/10
11:09:23.00
23/10/10
11:09:23.00


444.500000
1









LS55
15.00
5.00
5.00
SCAN
1
20
100
100
0
500
0
2
0
1
7
ON
500 450 
1 0 0
#HDR
-1
-1
#GR
NM

0.00002384185791015625
0.0
300.000000
0.500000
290
8
70.411787
-3.926203
#DATA
300.000000	-2.072000 
300.500000	-2.311173 
301.000000	-2.709085 
301.500000	-3.355448 
302.000000	-3.787776 
302.500000	-3.914133 
303.000000	-3.926203 
303.500000	-3.920444 
304.000000	-3.744002 
304.500000	-3.361732 
305.000000	-2.760499 
305.500000	-2.118313 
306.000000	-1.808794 
306.500000	-1.604872 
307.000000	-1.418081 
307.500000	-1.193643 
308.000000	-0.838922 
308.500000	-0.277393 
309.000000	0.172290  
309.500000	0.631188  
310.000000	1.256679  
310.500000	1.593908  
311.000000	1.796675  
311.500000	1.723385  
312.000000	1.385452  
312.500000	1.207140  
313.000000	1.623696  
313.500000	2.229858  
314.000000	2.950737  
314.500000	3.952961  
315.000000	4.969879  
315.500000	6.142463  
316.000000	7.214791  
316.500000	7.906644  
317.000000	8.348643  
317.500000	9.185594  
318.000000	10.303950 
318.500000	11.632437 
319.000000	13.072005 
319.500000	14.553796 
320.000000	15.995215 
320.500000	17.517425 
321.000000	18.578430 
321.500000	19.316563 
322.000000	20.090730 
322.500000	20.992584 
323.000000	22.524145 
323.500000	24.474990 
324.000000	27.033675 
324.500000	30.016682 
325.000000	33.383748 
325.500000	36.714347 
326.000000	39.908392 
326.500000	43.232743 
327.000000	46.208863 
327.500000	48.844338 
328.000000	51.212549 
328.500000	53.455624 
329.000000	55.930170 
329.500000	58.364671 
330.000000	60.748039 
330.500000	62.994039 
331.000000	65.451678 
331.500000	67.627329 
332.000000	69.389021 
332.500000	70.316881 
333.000000	70.411787 
333.500000	70.184646 
334.000000	69.120529 
334.500000	67.437937 
335.000000	65.179056 
335.500000	62.859442 
336.000000	60.411985 
336.500000	58.020106 
337.000000	55.271193 
337.500000	52.445881 
338.000000	49.769293 
338.500000	46.840491 
339.000000	43.763004 
339.500000	40.813479 
340.000000	37.916771 
340.500000	34.821349 
341.000000	31.753569 
341.500000	28.400954 
342.000000	25.298982 
342.500000	22.516738 
343.000000	19.981782 
343.500000	17.683137 
344.000000	15.894221 
344.500000	14.451168 
345.000000	13.401576 
345.500000	12.476588 
346.000000	11.590194 
346.500000	10.909687 
347.000000	10.357014 
347.500000	9.730399  
348.000000	9.021180  
348.500000	8.430663  
349.000000	7.760366  
349.500000	7.100244  
350.000000	6.329385  
350.500000	5.655110  
351.000000	5.109154  
351.500000	4.654622  
352.000000	4.218922  
352.500000	3.875840  
353.000000	3.661700  
353.500000	3.513797  
354.000000	3.392621  
354.500000	3.163567  
355.000000	2.832094  
355.500000	2.509206  
356.000000	2.182556  
356.500000	1.855736  
357.000000	1.541289  
357.500000	1.287678  
358.000000	1.197292  
358.500000	1.294512  
359.000000	1.523745  
359.500000	1.662321  
360.000000	1.746114  
360.500000	1.758656  
361.000000	1.834782  
361.500000	1.838042  
362.000000	1.768521  
362.500000	1.727465  
363.000000	1.686102  
363.500000	1.745812  
364.000000	1.780959  
364.500000	1.699324  
365.000000	1.525624  
365.500000	1.434647  
366.000000	1.305450  
366.500000	1.239218  
367.000000	1.197035  
367.500000	1.179247  
368.000000	1.239594  
368.500000	1.371203  
369.000000	1.483261  
369.500000	1.509157  
370.000000	1.541345  
370.500000	1.506343  
371.000000	1.512224  
371.500000	1.438832  
372.000000	1.296410  
372.500000	1.102442  
373.000000	0.897902  
373.500000	0.751286  
374.000000	0.609442  
374.500000	0.513771  
375.000000	0.524361  
375.500000	0.738101  
376.000000	1.000449  
376.500000	1.283746  
377.000000	1.527324  
377.500000	1.694725  
378.000000	1.848242  
378.500000	1.915913  
379.000000	1.825347  
379.500000	1.695617  
380.000000	1.545445  
380.500000	1.418957  
381.000000	1.357885  
381.500000	1.343879  
382.000000	1.308833  
382.500000	1.334713  
383.000000	1.428933  
383.500000	1.536897  
384.000000	1.684691  
384.500000	1.778275  
385.000000	1.823338  
385.500000	1.902253  
386.000000	1.965386  
386.500000	1.914984  
387.000000	1.815637  
387.500000	1.731202  
388.000000	1.636074  
388.500000	1.566936  
389.000000	1.459757  
389.500000	1.298252  
390.000000	1.133515  
390.500000	1.018446  
391.000000	0.897203  
391.500000	0.813956  
392.000000	0.802414  
392.500000	0.844754  
393.000000	0.940264  
393.500000	1.071466  
394.000000	1.225682  
394.500000	1.401465  
395.000000	1.575312  
395.500000	1.668980  
396.000000	1.731556  
396.500000	1.773069  
397.000000	1.782302  
397.500000	1.694606  
398.000000	1.533061  
398.500000	1.381627  
399.000000	1.265261  
399.500000	1.191304  
400.000000	1.127648  
400.500000	1.116417  
401.000000	1.129927  
401.500000	1.207821  
402.000000	1.264517  
402.500000	1.263723  
403.000000	1.214459  
403.500000	1.182599  
404.000000	1.165106  
404.500000	1.148842  
405.000000	1.119689  
405.500000	1.067383  
406.000000	1.049257  
406.500000	1.067846  
407.000000	1.081995  
407.500000	1.067476  
408.000000	1.091264  
408.500000	1.116110  
409.000000	1.167006  
409.500000	1.227783  
410.000000	1.238431  
410.500000	1.254895  
411.000000	1.278730  
411.500000	1.305497  
412.000000	1.293593  
412.500000	1.319799  
413.000000	1.342122  
413.500000	1.341740  
414.000000	1.333442  
414.500000	1.258127  
415.000000	1.208482  
415.500000	1.150030  
416.000000	1.083948  
416.500000	0.993803  
417.000000	0.948055  
417.500000	0.913116  
418.000000	0.873027  
418.500000	0.863257  
419.000000	0.824440  
419.500000	0.860095  
420.000000	0.920168  
420.500000	0.971068  
421.000000	1.027954  
421.500000	1.111276  
422.000000	1.171969  
422.500000	1.193076  
423.000000	1.184219  
423.500000	1.122402  
424.000000	1.062037  
424.500000	0.992205  
425.000000	0.907498  
425.500000	0.848718  
426.000000	0.844441  
426.500000	0.854792  
427.000000	0.880198  
427.500000	0.933802  
428.000000	0.984926  
428.500000	1.035304  
429.000000	1.052429  
429.500000	1.042678  
430.000000	1.024131  
430.500000	1.025323  
431.000000	1.013415  
431.500000	1.010158  
432.000000	1.029986  
432.500000	1.064807  
433.000000	1.100603  
433.500000	1.111391  
434.000000	1.127113  
434.500000	1.119500  
435.000000	1.117659  
435.500000	1.099907  
436.000000	1.085646  
436.500000	1.076926  
437.000000	1.063204  
437.500000	1.034183  
438.000000	1.008685  
438.500000	1.019009  
439.000000	1.012998  
439.500000	1.020372  
440.000000	1.036550  
440.500000	1.075496  
441.000000	1.119269  
441.500000	1.146106  
442.000000	1.133117  
442.500000	1.091848  
443.000000	1.074246  
443.500000	1.050491  
444.000000	1.012733  
444.500000	0.992620  

