PE FL                   SPECTRUM    ASCII       PEDS        1.60        
  -1
PM1F57~1
23/10/10
11:08:49.00
23/10/10
11:08:49.00


444.500000
1









LS55
10.00
5.00
5.00
SCAN
1
20
100
100
0
500
0
2
0
1
7
ON
500 450 
1 0 0
#HDR
-1
-1
#GR
NM

0.00002384185791015625
0.0
300.000000
0.500000
290
8
44.192959
-2.192407
#DATA
300.000000	-1.036000 
300.500000	-1.649771 
301.000000	-2.007644 
301.500000	-2.150110 
302.000000	-2.135231 
302.500000	-1.883468 
303.000000	-1.476284 
303.500000	-1.040389 
304.000000	-0.682570 
304.500000	-0.541253 
305.000000	-0.467316 
305.500000	-0.372389 
306.000000	-0.425753 
306.500000	-0.786024 
307.000000	-0.773209 
307.500000	-0.420648 
308.000000	0.070190  
308.500000	0.497371  
309.000000	0.832242  
309.500000	1.021531  
310.000000	1.040369  
310.500000	0.750170  
311.000000	-0.221192 
311.500000	-1.046735 
312.000000	-1.694489 
312.500000	-2.019753 
313.000000	-2.192407 
313.500000	-1.927092 
314.000000	-1.447427 
314.500000	-0.671032 
315.000000	0.115884  
315.500000	0.535185  
316.000000	0.879348  
316.500000	1.121758  
317.000000	1.495402  
317.500000	1.865234  
318.000000	2.385212  
318.500000	2.911843  
319.000000	3.571279  
319.500000	4.193710  
320.000000	4.846924  
320.500000	5.579112  
321.000000	6.375613  
321.500000	7.377103  
322.000000	8.594865  
322.500000	9.872113  
323.000000	11.100498 
323.500000	12.228076 
324.000000	13.213857 
324.500000	14.254096 
325.000000	15.329545 
325.500000	16.741393 
326.000000	18.313405 
326.500000	20.163451 
327.000000	22.112879 
327.500000	24.333598 
328.000000	26.430059 
328.500000	28.443736 
329.000000	30.351617 
329.500000	32.302754 
330.000000	34.572286 
330.500000	36.576628 
331.000000	38.406812 
331.500000	39.836772 
332.000000	41.137169 
332.500000	42.030597 
333.000000	42.690202 
333.500000	42.971172 
334.000000	43.160596 
334.500000	43.684518 
335.000000	44.049579 
335.500000	44.192959 
336.000000	43.953449 
336.500000	43.430890 
337.000000	42.542746 
337.500000	41.475240 
338.000000	39.891120 
338.500000	38.072512 
339.000000	36.383987 
339.500000	34.602135 
340.000000	32.892043 
340.500000	31.047574 
341.000000	29.247132 
341.500000	27.599414 
342.000000	26.168473 
342.500000	24.557994 
343.000000	22.755616 
343.500000	20.872031 
344.000000	18.906997 
344.500000	17.007082 
345.000000	14.989240 
345.500000	13.064744 
346.000000	11.554439 
346.500000	10.537974 
347.000000	9.796531  
347.500000	9.184698  
348.000000	8.730455  
348.500000	8.223390  
349.000000	7.786778  
349.500000	7.338321  
350.000000	6.721130  
350.500000	6.039406  
351.000000	5.401676  
351.500000	4.794306  
352.000000	4.255126  
352.500000	3.831141  
353.000000	3.442065  
353.500000	3.066055  
354.000000	2.943186  
354.500000	2.844982  
355.000000	2.788038  
355.500000	2.799204  
356.000000	2.804194  
356.500000	2.812770  
357.000000	2.839704  
357.500000	2.858163  
358.000000	2.761633  
358.500000	2.755411  
359.000000	2.669607  
359.500000	2.522194  
360.000000	2.432884  
360.500000	2.357003  
361.000000	2.294116  
361.500000	2.278876  
362.000000	2.227001  
362.500000	2.165781  
363.000000	2.110477  
363.500000	2.023725  
364.000000	1.883561  
364.500000	1.624240  
365.000000	1.401905  
365.500000	1.196532  
366.000000	1.184712  
366.500000	1.207068  
367.000000	1.251210  
367.500000	1.311005  
368.000000	1.431245  
368.500000	1.612934  
369.000000	1.697800  
369.500000	1.766048  
370.000000	1.816518  
370.500000	1.949701  
371.000000	2.062063  
371.500000	2.136889  
372.000000	2.206640  
372.500000	2.242373  
373.000000	2.298378  
373.500000	2.244607  
374.000000	2.075437  
374.500000	1.978907  
375.000000	1.821251  
375.500000	1.675510  
376.000000	1.540345  
376.500000	1.488844  
377.000000	1.514676  
377.500000	1.610766  
378.000000	1.732164  
378.500000	1.761492  
379.000000	1.913241  
379.500000	1.983766  
380.000000	1.958205  
380.500000	1.899545  
381.000000	1.843327  
381.500000	1.806874  
382.000000	1.874549  
382.500000	1.970491  
383.000000	2.008286  
383.500000	2.126974  
384.000000	2.219958  
384.500000	2.240020  
385.000000	2.235387  
385.500000	2.211750  
386.000000	2.183450  
386.500000	2.211419  
387.000000	2.209238  
387.500000	2.171954  
388.000000	2.138773  
388.500000	2.079508  
389.000000	1.986762  
389.500000	1.895147  
390.000000	1.837415  
390.500000	1.778052  
391.000000	1.761563  
391.500000	1.721626  
392.000000	1.664313  
392.500000	1.587085  
393.000000	1.471465  
393.500000	1.382168  
394.000000	1.359871  
394.500000	1.389164  
395.000000	1.474395  
395.500000	1.563389  
396.000000	1.674531  
396.500000	1.810885  
397.000000	1.888913  
397.500000	1.874211  
398.000000	1.800177  
398.500000	1.731653  
399.000000	1.690079  
399.500000	1.688081  
400.000000	1.662312  
400.500000	1.702150  
401.000000	1.785968  
401.500000	1.836480  
402.000000	1.833549  
402.500000	1.793462  
403.000000	1.744520  
403.500000	1.696496  
404.000000	1.638278  
404.500000	1.557713  
405.000000	1.551080  
405.500000	1.591606  
406.000000	1.628807  
406.500000	1.697981  
407.000000	1.756665  
407.500000	1.808666  
408.000000	1.857268  
408.500000	1.855583  
409.000000	1.803827  
409.500000	1.801502  
410.000000	1.821006  
410.500000	1.826330  
411.000000	1.851567  
411.500000	1.865101  
412.000000	1.916722  
412.500000	1.982453  
413.000000	2.017465  
413.500000	2.012630  
414.000000	2.014929  
414.500000	2.005877  
415.000000	1.975753  
415.500000	1.938864  
416.000000	1.850269  
416.500000	1.772517  
417.000000	1.671919  
417.500000	1.588734  
418.000000	1.522415  
418.500000	1.486593  
419.000000	1.459159  
419.500000	1.480387  
420.000000	1.513246  
420.500000	1.523464  
421.000000	1.542360  
421.500000	1.527544  
422.000000	1.511060  
422.500000	1.538866  
423.000000	1.566662  
423.500000	1.576489  
424.000000	1.608787  
424.500000	1.638956  
425.000000	1.636970  
425.500000	1.623840  
426.000000	1.566934  
426.500000	1.476749  
427.000000	1.423680  
427.500000	1.345609  
428.000000	1.258190  
428.500000	1.216376  
429.000000	1.210647  
429.500000	1.208672  
430.000000	1.243463  
430.500000	1.297610  
431.000000	1.341488  
431.500000	1.424352  
432.000000	1.478232  
432.500000	1.505097  
433.000000	1.526142  
433.500000	1.543637  
434.000000	1.526742  
434.500000	1.505287  
435.000000	1.483794  
435.500000	1.465295  
436.000000	1.472102  
436.500000	1.478830  
437.000000	1.470579  
437.500000	1.456748  
438.000000	1.456311  
438.500000	1.464364  
439.000000	1.481760  
439.500000	1.487921  
440.000000	1.493844  
440.500000	1.503405  
441.000000	1.513457  
441.500000	1.506717  
442.000000	1.488057  
442.500000	1.462229  
443.000000	1.458369  
443.500000	1.467426  
444.000000	1.462773  
444.500000	1.461903  

