PE FL                   SPECTRUM    ASCII       PEDS        1.60        
  -1
PME08D~1
23/10/10
11:02:59.00
23/10/10
11:02:59.00


444.500000
1









LS55
50.00
5.00
5.00
SCAN
1
20
100
100
0
500
0
2
0
1
7
ON
500 450 
1 0 0
#HDR
-1
-1
#GR
NM

0.00002384185791015625
0.0
300.000000
0.500000
290
8
96.852964
0.279891
#DATA
300.000000	64.377000 
300.500000	64.948062 
301.000000	66.242341 
301.500000	67.711041 
302.000000	69.767699 
302.500000	71.762479 
303.000000	74.157110 
303.500000	76.309939 
304.000000	78.433294 
304.500000	80.546021 
305.000000	81.992090 
305.500000	83.294649 
306.000000	84.343567 
306.500000	85.504209 
307.000000	86.579873 
307.500000	87.740214 
308.000000	88.530081 
308.500000	88.872272 
309.000000	89.645191 
309.500000	90.194566 
310.000000	90.299034 
310.500000	90.508701 
311.000000	91.236713 
311.500000	92.462606 
312.000000	94.308526 
312.500000	95.724559 
313.000000	96.381473 
313.500000	96.852964 
314.000000	96.766008 
314.500000	95.593441 
315.000000	93.820725 
315.500000	91.696067 
316.000000	89.330254 
316.500000	87.515857 
317.000000	85.773686 
317.500000	84.351159 
318.000000	83.095264 
318.500000	81.721263 
319.000000	80.186149 
319.500000	78.856210 
320.000000	77.634596 
320.500000	76.233273 
321.000000	74.972527 
321.500000	73.543577 
322.000000	72.215112 
322.500000	71.065400 
323.000000	69.320458 
323.500000	67.164848 
324.000000	64.879434 
324.500000	62.535280 
325.000000	60.314025 
325.500000	57.875135 
326.000000	55.378914 
326.500000	53.084922 
327.000000	51.130312 
327.500000	49.537563 
328.000000	48.108235 
328.500000	46.728134 
329.000000	45.242822 
329.500000	43.897595 
330.000000	41.973500 
330.500000	39.476280 
331.000000	36.531347 
331.500000	33.178229 
332.000000	29.928090 
332.500000	26.762362 
333.000000	23.749491 
333.500000	20.996628 
334.000000	19.086069 
334.500000	17.497764 
335.000000	16.114442 
335.500000	14.942263 
336.000000	13.705119 
336.500000	12.682239 
337.000000	11.702584 
337.500000	10.781287 
338.000000	9.842649  
338.500000	9.241346  
339.000000	8.876838  
339.500000	8.575763  
340.000000	8.263027  
340.500000	7.952482  
341.000000	7.547304  
341.500000	7.058988  
342.000000	6.379716  
342.500000	5.552907  
343.000000	4.719660  
343.500000	4.003104  
344.000000	3.395750  
344.500000	2.898740  
345.000000	2.435289  
345.500000	2.087069  
346.000000	1.861753  
346.500000	1.690232  
347.000000	1.535246  
347.500000	1.369003  
348.000000	1.249679  
348.500000	1.230036  
349.000000	1.252884  
349.500000	1.232517  
350.000000	1.221090  
350.500000	1.196898  
351.000000	1.201099  
351.500000	1.170557  
352.000000	1.116199  
352.500000	1.026029  
353.000000	0.977637  
353.500000	0.943591  
354.000000	0.915214  
354.500000	0.904804  
355.000000	0.929274  
355.500000	1.077404  
356.000000	1.244551  
356.500000	1.436068  
357.000000	1.627587  
357.500000	1.783768  
358.000000	1.874410  
358.500000	1.882019  
359.000000	1.794402  
359.500000	1.714723  
360.000000	1.606697  
360.500000	1.467733  
361.000000	1.267508  
361.500000	1.112772  
362.000000	0.997479  
362.500000	0.923280  
363.000000	0.877858  
363.500000	0.862725  
364.000000	0.956263  
364.500000	1.044786  
365.000000	1.154106  
365.500000	1.160768  
366.000000	1.147739  
366.500000	1.119990  
367.000000	1.052368  
367.500000	0.911245  
368.000000	0.801681  
368.500000	0.745901  
369.000000	0.724548  
369.500000	0.760695  
370.000000	0.804701  
370.500000	0.875747  
371.000000	1.030943  
371.500000	1.199375  
372.000000	1.351666  
372.500000	1.466861  
373.000000	1.509510  
373.500000	1.467772  
374.000000	1.366704  
374.500000	1.212824  
375.000000	1.009864  
375.500000	0.890431  
376.000000	0.871964  
376.500000	0.941968  
377.000000	1.087859  
377.500000	1.251075  
378.000000	1.387388  
378.500000	1.485321  
379.000000	1.536780  
379.500000	1.504858  
380.000000	1.468332  
380.500000	1.462111  
381.000000	1.446424  
381.500000	1.470090  
382.000000	1.536976  
382.500000	1.587568  
383.000000	1.611101  
383.500000	1.595053  
384.000000	1.547014  
384.500000	1.515598  
385.000000	1.493555  
385.500000	1.405965  
386.000000	1.311779  
386.500000	1.246292  
387.000000	1.191092  
387.500000	1.120409  
388.000000	1.039830  
388.500000	1.051672  
389.000000	1.164382  
389.500000	1.333966  
390.000000	1.510882  
390.500000	1.695881  
391.000000	1.926910  
391.500000	2.096156  
392.000000	2.184617  
392.500000	2.166784  
393.000000	2.143861  
393.500000	2.107228  
394.000000	2.033795  
394.500000	1.919819  
395.000000	1.801794  
395.500000	1.732575  
396.000000	1.644701  
396.500000	1.557996  
397.000000	1.449795  
397.500000	1.418572  
398.000000	1.395660  
398.500000	1.370621  
399.000000	1.340345  
399.500000	1.312898  
400.000000	1.319789  
400.500000	1.328624  
401.000000	1.314737  
401.500000	1.269939  
402.000000	1.256705  
402.500000	1.281062  
403.000000	1.268541  
403.500000	1.260552  
404.000000	1.268168  
404.500000	1.266978  
405.000000	1.251502  
405.500000	1.214261  
406.000000	1.175952  
406.500000	1.154074  
407.000000	1.210801  
407.500000	1.234394  
408.000000	1.270620  
408.500000	1.327045  
409.000000	1.361467  
409.500000	1.373330  
410.000000	1.319733  
410.500000	1.216413  
411.000000	1.053187  
411.500000	0.929713  
412.000000	0.787016  
412.500000	0.652352  
413.000000	0.580776  
413.500000	0.535192  
414.000000	0.517796  
414.500000	0.489120  
415.000000	0.453047  
415.500000	0.412687  
416.000000	0.390609  
416.500000	0.380546  
417.000000	0.359305  
417.500000	0.357096  
418.000000	0.370477  
418.500000	0.420544  
419.000000	0.474256  
419.500000	0.520023  
420.000000	0.548110  
420.500000	0.547212  
421.000000	0.540288  
421.500000	0.498295  
422.000000	0.444457  
422.500000	0.392949  
423.000000	0.366295  
423.500000	0.352333  
424.000000	0.364735  
424.500000	0.398856  
425.000000	0.432264  
425.500000	0.473725  
426.000000	0.512928  
426.500000	0.541445  
427.000000	0.551007  
427.500000	0.553750  
428.000000	0.565081  
428.500000	0.580084  
429.000000	0.586077  
429.500000	0.572986  
430.000000	0.542136  
430.500000	0.485378  
431.000000	0.418390  
431.500000	0.353688  
432.000000	0.292495  
432.500000	0.279891  
433.000000	0.292790  
433.500000	0.331534  
434.000000	0.385516  
434.500000	0.450717  
435.000000	0.488697  
435.500000	0.513584  
436.000000	0.522348  
436.500000	0.495039  
437.000000	0.490718  
437.500000	0.465621  
438.000000	0.444613  
438.500000	0.434360  
439.000000	0.437537  
439.500000	0.422541  
440.000000	0.407434  
440.500000	0.398714  
441.000000	0.392487  
441.500000	0.415424  
442.000000	0.408042  
442.500000	0.392441  
443.000000	0.386074  
443.500000	0.388074  
444.000000	0.388795  
444.500000	0.397023  

