PE FL                   SPECTRUM    ASCII       PEDS        1.60        
  -1
PM717D~1
23/10/10
11:02:25.00
23/10/10
11:02:25.00


444.500000
1









LS55
45.00
5.00
5.00
SCAN
1
20
100
100
0
500
0
2
0
1
7
ON
500 450 
1 0 0
#HDR
-1
-1
#GR
NM

0.00002384185791015625
0.0
300.000000
0.500000
290
8
100.161792
0.184440
#DATA
300.000000	58.082000  
300.500000	55.894518  
301.000000	54.556979  
301.500000	55.123646  
302.000000	56.920781  
302.500000	59.936562  
303.000000	63.985196  
303.500000	68.231619  
304.000000	71.869763  
304.500000	74.879739  
305.000000	76.635005  
305.500000	78.252963  
306.000000	79.959685  
306.500000	81.149719  
307.000000	82.503941  
307.500000	84.053989  
308.000000	85.368661  
308.500000	86.619626  
309.000000	87.317655  
309.500000	86.941267  
310.000000	87.305893  
310.500000	87.899104  
311.000000	88.245934  
311.500000	89.387176  
312.000000	91.081906  
312.500000	93.044159  
313.000000	95.647378  
313.500000	97.835847  
314.000000	99.019814  
314.500000	100.161792 
315.000000	100.100656 
315.500000	98.245548  
316.000000	95.824295  
316.500000	93.465488  
317.000000	91.135993  
317.500000	89.606541  
318.000000	88.383743  
318.500000	87.686078  
319.000000	87.726746  
319.500000	87.777850  
320.000000	87.010376  
320.500000	85.612490  
321.000000	84.149163  
321.500000	82.771910  
322.000000	81.433211  
322.500000	79.651458  
323.000000	77.955956  
323.500000	75.961987  
324.000000	73.562695  
324.500000	70.675147  
325.000000	66.897871  
325.500000	63.170713  
326.000000	59.951649  
326.500000	57.179965  
327.000000	54.759633  
327.500000	52.846604  
328.000000	50.872137  
328.500000	48.848116  
329.000000	46.871450  
329.500000	44.418399  
330.000000	41.799077  
330.500000	39.468780  
331.000000	37.042868  
331.500000	34.784558  
332.000000	32.799718  
332.500000	30.594563  
333.000000	28.483638  
333.500000	26.424342  
334.000000	24.046229  
334.500000	21.552303  
335.000000	19.401859  
335.500000	17.356216  
336.000000	15.594606  
336.500000	14.204578  
337.000000	12.940791  
337.500000	12.121716  
338.000000	11.504481  
338.500000	11.078319  
339.000000	10.571321  
339.500000	10.021557  
340.000000	9.430032   
340.500000	8.763149   
341.000000	8.076745   
341.500000	7.108358   
342.000000	6.132482   
342.500000	5.112912   
343.000000	4.183487   
343.500000	3.410410   
344.000000	2.799273   
344.500000	2.416408   
345.000000	2.293098   
345.500000	2.429043   
346.000000	2.560952   
346.500000	2.735398   
347.000000	2.769399   
347.500000	2.696784   
348.000000	2.685894   
348.500000	2.675561   
349.000000	2.560648   
349.500000	2.429822   
350.000000	2.394207   
350.500000	2.371420   
351.000000	2.396511   
351.500000	2.305568   
352.000000	2.029632   
352.500000	1.682417   
353.000000	1.358403   
353.500000	0.994583   
354.000000	0.625957   
354.500000	0.366380   
355.000000	0.184440   
355.500000	0.204746   
356.000000	0.374787   
356.500000	0.608563   
357.000000	0.912069   
357.500000	1.248627   
358.000000	1.594319   
358.500000	1.787612   
359.000000	1.993012   
359.500000	2.031264   
360.000000	1.983776   
360.500000	1.956048   
361.000000	1.989068   
361.500000	2.113833   
362.000000	2.231604   
362.500000	2.468363   
363.000000	2.592263   
363.500000	2.746090   
364.000000	2.667427   
364.500000	2.436134   
365.000000	2.194819   
365.500000	1.900019   
366.000000	1.629354   
366.500000	1.390564   
367.000000	1.417886   
367.500000	1.484887   
368.000000	1.734497   
368.500000	1.928422   
369.000000	2.082188   
369.500000	2.306621   
370.000000	2.437810   
370.500000	2.494301   
371.000000	2.390975   
371.500000	2.309185   
372.000000	2.166955   
372.500000	2.179004   
373.000000	2.188775   
373.500000	2.221962   
374.000000	2.395799   
374.500000	2.592949   
375.000000	2.809246   
375.500000	2.917913   
376.000000	2.920042   
376.500000	2.746587   
377.000000	2.629462   
377.500000	2.424517   
378.000000	2.206409   
378.500000	1.988757   
379.000000	1.776015   
379.500000	1.667129   
380.000000	1.637127   
380.500000	1.607044   
381.000000	1.569315   
381.500000	1.647637   
382.000000	1.659602   
382.500000	1.658740   
383.000000	1.629085   
383.500000	1.575517   
384.000000	1.526256   
384.500000	1.540661   
385.000000	1.535948   
385.500000	1.582906   
386.000000	1.691436   
386.500000	1.734851   
387.000000	1.707492   
387.500000	1.648050   
388.000000	1.549936   
388.500000	1.424413   
389.000000	1.352016   
389.500000	1.276008   
390.000000	1.320419   
390.500000	1.456899   
391.000000	1.608678   
391.500000	1.685126   
392.000000	1.673088   
392.500000	1.599884   
393.000000	1.476627   
393.500000	1.339079   
394.000000	1.127982   
394.500000	0.955921   
395.000000	0.870275   
395.500000	0.857721   
396.000000	0.843452   
396.500000	0.796244   
397.000000	0.778350   
397.500000	0.769738   
398.000000	0.767938   
398.500000	0.691914   
399.000000	0.575301   
399.500000	0.525124   
400.000000	0.520954   
400.500000	0.551805   
401.000000	0.559123   
401.500000	0.606307   
402.000000	0.641241   
402.500000	0.685169   
403.000000	0.695693   
403.500000	0.654033   
404.000000	0.611962   
404.500000	0.544906   
405.000000	0.490371   
405.500000	0.454144   
406.000000	0.457151   
406.500000	0.481443   
407.000000	0.513639   
407.500000	0.548945   
408.000000	0.559838   
408.500000	0.555018   
409.000000	0.482249   
409.500000	0.428034   
410.000000	0.387493   
410.500000	0.357640   
411.000000	0.373950   
411.500000	0.408944   
412.000000	0.466077   
412.500000	0.515548   
413.000000	0.542209   
413.500000	0.496223   
414.000000	0.433635   
414.500000	0.348654   
415.000000	0.264959   
415.500000	0.231117   
416.000000	0.221880   
416.500000	0.263452   
417.000000	0.313427   
417.500000	0.383025   
418.000000	0.425862   
418.500000	0.462881   
419.000000	0.445789   
419.500000	0.417152   
420.000000	0.406126   
420.500000	0.372165   
421.000000	0.351761   
421.500000	0.320973   
422.000000	0.305298   
422.500000	0.309670   
423.000000	0.337329   
423.500000	0.340434   
424.000000	0.365190   
424.500000	0.413877   
425.000000	0.439533   
425.500000	0.460780   
426.000000	0.461530   
426.500000	0.437590   
427.000000	0.408303   
427.500000	0.384534   
428.000000	0.355683   
428.500000	0.350958   
429.000000	0.359202   
429.500000	0.362573   
430.000000	0.355542   
430.500000	0.347929   
431.000000	0.333955   
431.500000	0.324134   
432.000000	0.307690   
432.500000	0.300064   
433.000000	0.300091   
433.500000	0.305909   
434.000000	0.324605   
434.500000	0.347031   
435.000000	0.349358   
435.500000	0.342027   
436.000000	0.350268   
436.500000	0.348297   
437.000000	0.345372   
437.500000	0.346084   
438.000000	0.352779   
438.500000	0.376925   
439.000000	0.425024   
439.500000	0.459004   
440.000000	0.470361   
440.500000	0.489467   
441.000000	0.503087   
441.500000	0.498327   
442.000000	0.479966   
442.500000	0.459607   
443.000000	0.441878   
443.500000	0.448866   
444.000000	0.468651   
444.500000	0.465946   

