PE FL                   SPECTRUM    ASCII       PEDS        1.60        
  -1
PP58A2~1
23/10/10
14:45:31.00
23/10/10
14:45:31.00


444.500000
1









LS55
40.00
5.00
5.00
SCAN
1
20
100
100
0
500
0
2
0
1
7
ON
500 450 
1 0 0
#HDR
-1
-1
#GR
NM

0.00002384185791015625
0.0
250.000000
0.500000
390
8
2.609079
-4.152949
#DATA
250.000000	-2.880000 
250.500000	-1.634736 
251.000000	-1.056288 
251.500000	-0.419093 
252.000000	-0.317053 
252.500000	-0.528813 
253.000000	-0.616487 
253.500000	-0.433116 
254.000000	-0.728389 
254.500000	-0.743096 
255.000000	-0.524827 
255.500000	-0.808493 
256.000000	-1.295915 
256.500000	-2.285519 
257.000000	-3.167244 
257.500000	-3.710244 
258.000000	-3.852868 
258.500000	-4.152949 
259.000000	-4.088224 
259.500000	-3.510102 
260.000000	-2.389570 
260.500000	-1.090347 
261.000000	-0.139008 
261.500000	0.845935  
262.000000	1.757600  
262.500000	2.256791  
263.000000	1.724970  
263.500000	0.884048  
264.000000	-0.370597 
264.500000	-1.215016 
265.000000	-1.439673 
265.500000	-1.505839 
266.000000	-1.220240 
266.500000	-0.313105 
267.000000	0.910041  
267.500000	1.722703  
268.000000	2.252847  
268.500000	1.831268  
269.000000	1.344856  
269.500000	1.162371  
270.000000	0.901904  
270.500000	0.536734  
271.000000	0.324215  
271.500000	0.136198  
272.000000	-0.275007 
272.500000	-0.745797 
273.000000	-1.657348 
273.500000	-2.455371 
274.000000	-2.851567 
274.500000	-2.648831 
275.000000	-2.147596 
275.500000	-1.214482 
276.000000	-0.087021 
276.500000	0.933142  
277.000000	1.631357  
277.500000	1.448675  
278.000000	0.745311  
278.500000	-0.277390 
279.000000	-1.146795 
279.500000	-1.933704 
280.000000	-2.322410 
280.500000	-2.293861 
281.000000	-1.853555 
281.500000	-1.242793 
282.000000	-0.725504 
282.500000	-0.624522 
283.000000	-0.668127 
283.500000	-0.535451 
284.000000	-0.417516 
284.500000	-0.193081 
285.000000	-0.262973 
285.500000	-0.167144 
286.000000	-0.000410 
286.500000	0.269150  
287.000000	0.094030  
287.500000	-0.190870 
288.000000	-0.438377 
288.500000	-0.739918 
289.000000	-0.864771 
289.500000	-1.201070 
290.000000	-1.540454 
290.500000	-1.785161 
291.000000	-1.807729 
291.500000	-1.710994 
292.000000	-1.416476 
292.500000	-0.901005 
293.000000	-0.650137 
293.500000	-0.467631 
294.000000	-0.606593 
294.500000	-0.930987 
295.000000	-1.179687 
295.500000	-1.551005 
296.000000	-1.919739 
296.500000	-2.061721 
297.000000	-1.582340 
297.500000	-0.951738 
298.000000	-0.211360 
298.500000	0.388891  
299.000000	0.992567  
299.500000	1.431849  
300.000000	1.611061  
300.500000	1.277731  
301.000000	0.689943  
301.500000	0.226888  
302.000000	-0.287344 
302.500000	-0.664252 
303.000000	-0.997308 
303.500000	-1.051557 
304.000000	-1.115654 
304.500000	-1.124628 
305.000000	-1.222497 
305.500000	-1.399041 
306.000000	-1.333329 
306.500000	-1.196469 
307.000000	-1.020061 
307.500000	-0.756705 
308.000000	-0.296772 
308.500000	0.330363  
309.000000	0.899569  
309.500000	1.156409  
310.000000	1.075808  
310.500000	0.961032  
311.000000	0.945982  
311.500000	0.864349  
312.000000	0.496176  
312.500000	-0.031367 
313.000000	-0.361179 
313.500000	-0.355513 
314.000000	-0.340865 
314.500000	-0.477168 
315.000000	-0.668378 
315.500000	-0.571237 
316.000000	-0.364453 
316.500000	-0.455738 
317.000000	-0.568487 
317.500000	-0.612010 
318.000000	-0.305236 
318.500000	-0.010937 
319.000000	0.178403  
319.500000	0.205919  
320.000000	0.331550  
320.500000	0.433668  
321.000000	0.307481  
321.500000	0.225862  
322.000000	0.133276  
322.500000	0.264659  
323.000000	0.309397  
323.500000	0.318336  
324.000000	0.243473  
324.500000	0.287535  
325.000000	0.215812  
325.500000	-0.085886 
326.000000	-0.364780 
326.500000	-0.424708 
327.000000	-0.303450 
327.500000	-0.074379 
328.000000	0.202493  
328.500000	0.434984  
329.000000	0.744497  
329.500000	0.974240  
330.000000	1.053407  
330.500000	1.115220  
331.000000	1.387137  
331.500000	1.670665  
332.000000	1.974760  
332.500000	2.165038  
333.000000	2.274497  
333.500000	2.395720  
334.000000	2.444385  
334.500000	2.292432  
335.000000	1.885475  
335.500000	1.586532  
336.000000	1.288928  
336.500000	1.153321  
337.000000	1.023371  
337.500000	0.918846  
338.000000	0.874760  
338.500000	0.974878  
339.000000	1.233512  
339.500000	1.378004  
340.000000	1.573081  
340.500000	1.872784  
341.000000	2.221305  
341.500000	2.444273  
342.000000	2.393141  
342.500000	2.101695  
343.000000	1.689936  
343.500000	1.372790  
344.000000	1.011848  
344.500000	0.774890  
345.000000	0.745089  
345.500000	1.024189  
346.000000	1.512815  
346.500000	1.954608  
347.000000	2.311853  
347.500000	2.493697  
348.000000	2.609079  
348.500000	2.502867  
349.000000	2.236611  
349.500000	1.806187  
350.000000	1.380318  
350.500000	1.074636  
351.000000	0.818948  
351.500000	0.683147  
352.000000	0.639582  
352.500000	0.795649  
353.000000	1.105020  
353.500000	1.547322  
354.000000	1.890874  
354.500000	2.122250  
355.000000	2.259637  
355.500000	2.196944  
356.000000	2.015824  
356.500000	1.727949  
357.000000	1.476744  
357.500000	1.278076  
358.000000	1.238130  
358.500000	1.332748  
359.000000	1.543650  
359.500000	1.702447  
360.000000	1.795938  
360.500000	1.891290  
361.000000	1.959740  
361.500000	1.948271  
362.000000	1.829989  
362.500000	1.613817  
363.000000	1.368199  
363.500000	1.223945  
364.000000	1.035354  
364.500000	0.895792  
365.000000	0.902539  
365.500000	1.009160  
366.000000	1.205915  
366.500000	1.438679  
367.000000	1.538749  
367.500000	1.568370  
368.000000	1.512524  
368.500000	1.319831  
369.000000	1.176840  
369.500000	1.099314  
370.000000	1.071649  
370.500000	1.122967  
371.000000	1.317934  
371.500000	1.477708  
372.000000	1.653836  
372.500000	1.675842  
373.000000	1.603041  
373.500000	1.542602  
374.000000	1.494147  
374.500000	1.404466  
375.000000	1.329284  
375.500000	1.315459  
376.000000	1.271230  
376.500000	1.300703  
377.000000	1.306439  
377.500000	1.334319  
378.000000	1.362545  
378.500000	1.362871  
379.000000	1.258202  
379.500000	1.136569  
380.000000	0.952618  
380.500000	0.685511  
381.000000	0.473995  
381.500000	0.299274  
382.000000	0.230241  
382.500000	0.245526  
383.000000	0.357035  
383.500000	0.450432  
384.000000	0.628699  
384.500000	0.740091  
385.000000	0.748114  
385.500000	0.746837  
386.000000	0.701216  
386.500000	0.674483  
387.000000	0.672771  
387.500000	0.674961  
388.000000	0.615937  
388.500000	0.618394  
389.000000	0.583457  
389.500000	0.447396  
390.000000	0.323650  
390.500000	0.181678  
391.000000	0.091369  
391.500000	0.088564  
392.000000	0.135084  
392.500000	0.185005  
393.000000	0.281088  
393.500000	0.412940  
394.000000	0.524766  
394.500000	0.638819  
395.000000	0.696202  
395.500000	0.732041  
396.000000	0.790327  
396.500000	0.832750  
397.000000	0.828755  
397.500000	0.746097  
398.000000	0.650627  
398.500000	0.515846  
399.000000	0.402031  
399.500000	0.282009  
400.000000	0.185327  
400.500000	0.117162  
401.000000	0.105706  
401.500000	0.142954  
402.000000	0.197996  
402.500000	0.256618  
403.000000	0.291904  
403.500000	0.357657  
404.000000	0.429453  
404.500000	0.495045  
405.000000	0.539575  
405.500000	0.571801  
406.000000	0.569753  
406.500000	0.582956  
407.000000	0.579785  
407.500000	0.541749  
408.000000	0.509502  
408.500000	0.460191  
409.000000	0.407362  
409.500000	0.359318  
410.000000	0.314828  
410.500000	0.234163  
411.000000	0.219567  
411.500000	0.240000  
412.000000	0.285109  
412.500000	0.314605  
413.000000	0.318099  
413.500000	0.316190  
414.000000	0.339888  
414.500000	0.370165  
415.000000	0.378292  
415.500000	0.380993  
416.000000	0.398410  
416.500000	0.459188  
417.000000	0.512374  
417.500000	0.530414  
418.000000	0.514956  
418.500000	0.499023  
419.000000	0.461654  
419.500000	0.431559  
420.000000	0.364000  
420.500000	0.298697  
421.000000	0.264540  
421.500000	0.245041  
422.000000	0.220861  
422.500000	0.179874  
423.000000	0.156040  
423.500000	0.132877  
424.000000	0.153341  
424.500000	0.177274  
425.000000	0.214095  
425.500000	0.244949  
426.000000	0.287178  
426.500000	0.320049  
427.000000	0.339597  
427.500000	0.356060  
428.000000	0.352327  
428.500000	0.350463  
429.000000	0.336539  
429.500000	0.326798  
430.000000	0.313105  
430.500000	0.310328  
431.000000	0.317682  
431.500000	0.331776  
432.000000	0.353807  
432.500000	0.372869  
433.000000	0.401062  
433.500000	0.414722  
434.000000	0.406106  
434.500000	0.375066  
435.000000	0.322930  
435.500000	0.277655  
436.000000	0.235657  
436.500000	0.201432  
437.000000	0.184183  
437.500000	0.213366  
438.000000	0.259893  
438.500000	0.313542  
439.000000	0.370234  
439.500000	0.416306  
440.000000	0.467254  
440.500000	0.501308  
441.000000	0.506205  
441.500000	0.489489  
442.000000	0.466474  
442.500000	0.423601  
443.000000	0.377649  
443.500000	0.342001  
444.000000	0.330077  
444.500000	0.343588  

