PE FL                   SPECTRUM    ASCII       PEDS        1.60        
  -1
PPF7A2~1
23/10/10
14:41:28.00
23/10/10
14:41:28.00


444.500000
1









LS55
10.00
5.00
5.00
SCAN
1
20
100
100
0
500
0
2
0
1
7
ON
500 450 
1 0 0
#HDR
-1
-1
#GR
NM

0.00002384185791015625
0.0
250.000000
0.500000
390
8
2.906402
-4.999999
#DATA
250.000000	-4.999999 
250.500000	-4.563653 
251.000000	-4.159651 
251.500000	-3.855222 
252.000000	-3.759768 
252.500000	-4.065645 
253.000000	-4.518892 
253.500000	-4.759924 
254.000000	-4.841487 
254.500000	-4.658874 
255.000000	-4.244094 
255.500000	-3.788599 
256.000000	-3.105257 
256.500000	-2.359245 
257.000000	-1.933083 
257.500000	-1.804006 
258.000000	-1.699433 
258.500000	-1.735177 
259.000000	-1.749933 
259.500000	-1.811306 
260.000000	-2.053860 
260.500000	-2.225119 
261.000000	-2.360320 
261.500000	-2.697621 
262.000000	-3.468433 
262.500000	-4.009309 
263.000000	-4.292350 
263.500000	-4.287590 
264.000000	-4.037403 
264.500000	-3.505491 
265.000000	-2.622574 
265.500000	-1.649663 
266.000000	-1.131996 
266.500000	-1.048598 
267.000000	-0.893639 
267.500000	-0.617416 
268.000000	-0.437286 
268.500000	-0.518906 
269.000000	-0.668314 
269.500000	-0.691146 
270.000000	-0.709871 
270.500000	-1.248433 
271.000000	-2.106605 
271.500000	-2.707937 
272.000000	-3.113139 
272.500000	-3.255442 
273.000000	-3.152584 
273.500000	-2.861798 
274.000000	-2.180879 
274.500000	-1.087967 
275.000000	-0.740549 
275.500000	-0.713605 
276.000000	-0.446337 
276.500000	-0.347095 
277.000000	0.097617  
277.500000	0.798463  
278.000000	1.373282  
278.500000	1.658362  
279.000000	2.134473  
279.500000	2.156959  
280.000000	1.830108  
280.500000	1.791644  
281.000000	1.552777  
281.500000	1.710840  
282.000000	2.009624  
282.500000	2.288915  
283.000000	2.248000  
283.500000	2.290296  
284.000000	2.010803  
284.500000	1.489936  
285.000000	1.094475  
285.500000	0.424072  
286.000000	0.183985  
286.500000	0.155926  
287.000000	0.141227  
287.500000	0.062579  
288.000000	0.068525  
288.500000	-0.137569 
289.000000	-0.359857 
289.500000	-0.294873 
290.000000	-0.174354 
290.500000	0.130615  
291.000000	0.674723  
291.500000	1.142352  
292.000000	1.357077  
292.500000	1.608634  
293.000000	1.400825  
293.500000	0.950359  
294.000000	0.534984  
294.500000	0.135696  
295.000000	-0.470246 
295.500000	-0.859173 
296.000000	-1.171985 
296.500000	-1.355777 
297.000000	-1.334828 
297.500000	-1.377702 
298.000000	-1.493942 
298.500000	-1.558833 
299.000000	-1.140938 
299.500000	-0.778489 
300.000000	-0.243719 
300.500000	0.112170  
301.000000	0.658208  
301.500000	1.106535  
302.000000	1.194711  
302.500000	0.934979  
303.000000	0.441278  
303.500000	0.217369  
304.000000	0.051347  
304.500000	0.259550  
305.000000	0.228607  
305.500000	0.502812  
306.000000	0.721696  
306.500000	0.722863  
307.000000	0.383032  
307.500000	-0.105917 
308.000000	-0.459607 
308.500000	-0.738274 
309.000000	-0.883670 
309.500000	-0.922744 
310.000000	-0.671671 
310.500000	-0.234355 
311.000000	0.284256  
311.500000	0.711612  
312.000000	1.075066  
312.500000	1.300724  
313.000000	1.411495  
313.500000	1.225282  
314.000000	0.922542  
314.500000	0.510773  
315.000000	0.127605  
315.500000	-0.037896 
316.000000	0.002579  
316.500000	0.244551  
317.000000	0.546651  
317.500000	1.024813  
318.000000	1.463678  
318.500000	1.781810  
319.000000	1.895508  
319.500000	1.772225  
320.000000	1.649007  
320.500000	1.618950  
321.000000	1.626235  
321.500000	1.521383  
322.000000	1.296810  
322.500000	1.154598  
323.000000	1.035068  
323.500000	0.919986  
324.000000	0.657942  
324.500000	0.440643  
325.000000	0.365482  
325.500000	0.531011  
326.000000	0.806358  
326.500000	1.203559  
327.000000	1.653478  
327.500000	2.074570  
328.000000	2.620025  
328.500000	2.906402  
329.000000	2.903047  
329.500000	2.752130  
330.000000	2.387302  
330.500000	1.894867  
331.000000	1.558774  
331.500000	1.276548  
332.000000	1.127193  
332.500000	1.280100  
333.000000	1.550832  
333.500000	1.825577  
334.000000	2.149892  
334.500000	2.340989  
335.000000	2.157274  
335.500000	1.946483  
336.000000	1.505830  
336.500000	0.881580  
337.000000	0.307104  
337.500000	-0.223888 
338.000000	-0.536387 
338.500000	-0.537191 
339.000000	-0.157715 
339.500000	0.262622  
340.000000	0.790076  
340.500000	1.253109  
341.000000	1.615822  
341.500000	1.830172  
342.000000	1.796639  
342.500000	1.592389  
343.000000	1.261192  
343.500000	1.098998  
344.000000	1.055417  
344.500000	1.088647  
345.000000	1.169566  
345.500000	1.321729  
346.000000	1.596077  
346.500000	1.877851  
347.000000	2.057479  
347.500000	2.153140  
348.000000	2.214651  
348.500000	2.353824  
349.000000	2.433064  
349.500000	2.470774  
350.000000	2.416751  
350.500000	2.307854  
351.000000	2.256511  
351.500000	2.137847  
352.000000	2.027665  
352.500000	1.810564  
353.000000	1.505297  
353.500000	1.213331  
354.000000	1.045951  
354.500000	0.857630  
355.000000	0.683728  
355.500000	0.617793  
356.000000	0.623863  
356.500000	0.793826  
357.000000	1.022222  
357.500000	1.144915  
358.000000	1.183486  
358.500000	1.222483  
359.000000	1.129383  
359.500000	0.931075  
360.000000	0.776961  
360.500000	0.704131  
361.000000	0.803482  
361.500000	1.093136  
362.000000	1.489115  
362.500000	1.936879  
363.000000	2.360874  
363.500000	2.590146  
364.000000	2.519058  
364.500000	2.306556  
365.000000	1.973722  
365.500000	1.598976  
366.000000	1.288258  
366.500000	1.114043  
367.000000	1.074117  
367.500000	1.176293  
368.000000	1.345854  
368.500000	1.480910  
369.000000	1.681893  
369.500000	1.910918  
370.000000	1.974662  
370.500000	1.961634  
371.000000	1.869042  
371.500000	1.701259  
372.000000	1.506218  
372.500000	1.342881  
373.000000	1.153357  
373.500000	1.061741  
374.000000	1.182371  
374.500000	1.335849  
375.000000	1.572987  
375.500000	1.794271  
376.000000	1.935735  
376.500000	1.909980  
377.000000	1.821244  
377.500000	1.621777  
378.000000	1.368045  
378.500000	1.209227  
379.000000	1.103348  
379.500000	1.017827  
380.000000	0.936549  
380.500000	0.895757  
381.000000	0.791034  
381.500000	0.711508  
382.000000	0.703327  
382.500000	0.762211  
383.000000	0.858609  
383.500000	1.046988  
384.000000	1.225839  
384.500000	1.415117  
385.000000	1.628859  
385.500000	1.788277  
386.000000	1.771603  
386.500000	1.663962  
387.000000	1.492297  
387.500000	1.273103  
388.000000	1.104395  
388.500000	0.960480  
389.000000	0.878077  
389.500000	0.900755  
390.000000	1.018038  
390.500000	1.113003  
391.000000	1.245987  
391.500000	1.379215  
392.000000	1.502560  
392.500000	1.586494  
393.000000	1.631140  
393.500000	1.666411  
394.000000	1.716448  
394.500000	1.751800  
395.000000	1.787796  
395.500000	1.782311  
396.000000	1.729430  
396.500000	1.693615  
397.000000	1.610760  
397.500000	1.537468  
398.000000	1.519483  
398.500000	1.542840  
399.000000	1.535446  
399.500000	1.559627  
400.000000	1.574399  
400.500000	1.557437  
401.000000	1.572228  
401.500000	1.555317  
402.000000	1.515205  
402.500000	1.547953  
403.000000	1.613768  
403.500000	1.657706  
404.000000	1.703449  
404.500000	1.755842  
405.000000	1.775278  
405.500000	1.764466  
406.000000	1.706579  
406.500000	1.578316  
407.000000	1.456699  
407.500000	1.354459  
408.000000	1.294140  
408.500000	1.273498  
409.000000	1.328606  
409.500000	1.428307  
410.000000	1.538780  
410.500000	1.650498  
411.000000	1.742907  
411.500000	1.775912  
412.000000	1.750929  
412.500000	1.691980  
413.000000	1.627962  
413.500000	1.569636  
414.000000	1.514223  
414.500000	1.469349  
415.000000	1.450944  
415.500000	1.472560  
416.000000	1.465524  
416.500000	1.457121  
417.000000	1.416840  
417.500000	1.414084  
418.000000	1.415040  
418.500000	1.408144  
419.000000	1.395164  
419.500000	1.416034  
420.000000	1.472252  
420.500000	1.520771  
421.000000	1.571460  
421.500000	1.577024  
422.000000	1.597736  
422.500000	1.604923  
423.000000	1.596948  
423.500000	1.559174  
424.000000	1.523475  
424.500000	1.500564  
425.000000	1.498930  
425.500000	1.528892  
426.000000	1.521830  
426.500000	1.523288  
427.000000	1.511022  
427.500000	1.490730  
428.000000	1.463817  
428.500000	1.408292  
429.000000	1.342470  
429.500000	1.302546  
430.000000	1.297130  
430.500000	1.279221  
431.000000	1.280049  
431.500000	1.287551  
432.000000	1.313125  
432.500000	1.360551  
433.000000	1.399903  
433.500000	1.410422  
434.000000	1.406255  
434.500000	1.406946  
435.000000	1.376521  
435.500000	1.333101  
436.000000	1.301281  
436.500000	1.295949  
437.000000	1.338952  
437.500000	1.401170  
438.000000	1.466661  
438.500000	1.525845  
439.000000	1.572419  
439.500000	1.578389  
440.000000	1.560985  
440.500000	1.506093  
441.000000	1.431065  
441.500000	1.381221  
442.000000	1.363920  
442.500000	1.364672  
443.000000	1.376734  
443.500000	1.388190  
444.000000	1.384142  
444.500000	1.387701  

