PE FL                   SPECTRUM    ASCII       PEDS        1.60        
  -1
PP28A2~1
23/10/10
14:43:29.00
23/10/10
14:43:29.00


444.500000
1









LS55
25.00
5.00
5.00
SCAN
1
20
100
100
0
500
0
2
0
1
7
ON
500 450 
1 0 0
#HDR
-1
-1
#GR
NM

0.00002384185791015625
0.0
250.000000
0.500000
390
8
4.048972
-4.474397
#DATA
250.000000	0.000000  
250.500000	0.039803  
251.000000	0.196085  
251.500000	-0.036026 
252.000000	-0.802128 
252.500000	-2.036238 
253.000000	-3.178192 
253.500000	-3.906510 
254.000000	-4.262455 
254.500000	-4.462742 
255.000000	-4.474397 
255.500000	-3.990881 
256.000000	-3.465495 
256.500000	-3.056528 
257.000000	-2.927634 
257.500000	-2.676563 
258.000000	-2.356162 
258.500000	-2.137960 
259.000000	-1.966372 
259.500000	-1.771889 
260.000000	-1.458541 
260.500000	-1.269414 
261.000000	-1.365304 
261.500000	-1.594040 
262.000000	-1.808891 
262.500000	-1.980605 
263.000000	-2.204904 
263.500000	-2.429306 
264.000000	-2.562600 
264.500000	-2.456939 
265.000000	-2.299348 
265.500000	-2.467815 
266.000000	-2.574404 
266.500000	-3.043139 
267.000000	-3.308529 
267.500000	-3.545796 
268.000000	-3.766391 
268.500000	-3.769105 
269.000000	-3.447834 
269.500000	-2.628826 
270.000000	-1.787682 
270.500000	-0.844967 
271.000000	-0.445536 
271.500000	0.005947  
272.000000	0.371916  
272.500000	0.776751  
273.000000	1.241169  
273.500000	1.676122  
274.000000	2.262665  
274.500000	2.620058  
275.000000	2.651020  
275.500000	2.064154  
276.000000	1.158962  
276.500000	0.002615  
277.000000	-1.147531 
277.500000	-1.774185 
278.000000	-1.886827 
278.500000	-1.248393 
279.000000	-0.210801 
279.500000	0.938304  
280.000000	2.155287  
280.500000	3.030776  
281.000000	3.294805  
281.500000	2.997927  
282.000000	2.357213  
282.500000	1.486277  
283.000000	0.564182  
283.500000	-0.236008 
284.000000	-0.990748 
284.500000	-1.302447 
285.000000	-1.176766 
285.500000	-0.685508 
286.000000	0.260023  
286.500000	1.493268  
287.000000	2.598254  
287.500000	3.309417  
288.000000	3.938882  
288.500000	3.869687  
289.000000	3.216320  
289.500000	2.243794  
290.000000	1.281189  
290.500000	0.668880  
291.000000	0.270042  
291.500000	0.240208  
292.000000	0.330522  
292.500000	0.987329  
293.000000	1.519098  
293.500000	1.674558  
294.000000	1.614006  
294.500000	1.568655  
295.000000	1.308370  
295.500000	0.640386  
296.000000	0.153086  
296.500000	-0.125035 
297.000000	-0.092904 
297.500000	0.379153  
298.000000	0.909152  
298.500000	1.561567  
299.000000	2.463069  
299.500000	3.260910  
300.000000	3.457885  
300.500000	3.670547  
301.000000	3.915061  
301.500000	3.715178  
302.000000	3.575308  
302.500000	3.439491  
303.000000	3.595460  
303.500000	3.928962  
304.000000	4.048972  
304.500000	3.988161  
305.000000	3.851801  
305.500000	3.808074  
306.000000	3.207562  
306.500000	2.423606  
307.000000	1.753931  
307.500000	1.356693  
308.000000	1.233305  
308.500000	1.122187  
309.000000	1.261631  
309.500000	1.543198  
310.000000	2.198676  
310.500000	2.716110  
311.000000	3.075033  
311.500000	3.371392  
312.000000	3.439541  
312.500000	3.629149  
313.000000	3.625759  
313.500000	3.707564  
314.000000	3.561965  
314.500000	3.399931  
315.000000	3.242378  
315.500000	2.924839  
316.000000	2.624237  
316.500000	2.051080  
317.000000	1.514006  
317.500000	1.016723  
318.000000	0.650922  
318.500000	0.223837  
319.000000	-0.325227 
319.500000	-0.610527 
320.000000	-0.783801 
320.500000	-0.793488 
321.000000	-0.896348 
321.500000	-0.893655 
322.000000	-0.973400 
322.500000	-0.950350 
323.000000	-0.925339 
323.500000	-1.061005 
324.000000	-0.952162 
324.500000	-0.756013 
325.000000	-0.482002 
325.500000	-0.190637 
326.000000	0.175352  
326.500000	0.394217  
327.000000	0.658474  
327.500000	0.793615  
328.000000	0.748077  
328.500000	0.629134  
329.000000	0.593865  
329.500000	0.621600  
330.000000	0.630331  
330.500000	0.746431  
331.000000	0.807897  
331.500000	0.868741  
332.000000	0.875335  
332.500000	0.702527  
333.000000	0.330515  
333.500000	0.045760  
334.000000	-0.168409 
334.500000	-0.249270 
335.000000	-0.235311 
335.500000	-0.161545 
336.000000	-0.042549 
336.500000	0.228446  
337.000000	0.334947  
337.500000	0.301854  
338.000000	0.296717  
338.500000	0.399289  
339.000000	0.543744  
339.500000	0.722261  
340.000000	0.919843  
340.500000	1.070334  
341.000000	1.312918  
341.500000	1.331547  
342.000000	1.237312  
342.500000	1.047902  
343.000000	0.788827  
343.500000	0.545777  
344.000000	0.318372  
344.500000	0.091047  
345.000000	-0.129415 
345.500000	-0.184594 
346.000000	-0.230643 
346.500000	-0.240495 
347.000000	-0.185882 
347.500000	-0.154775 
348.000000	-0.133129 
348.500000	-0.068022 
349.000000	0.036106  
349.500000	0.179636  
350.000000	0.390915  
350.500000	0.654393  
351.000000	0.927160  
351.500000	1.254188  
352.000000	1.504880  
352.500000	1.537259  
353.000000	1.378506  
353.500000	1.087567  
354.000000	0.672759  
354.500000	0.216860  
355.000000	-0.269124 
355.500000	-0.733784 
356.000000	-1.106888 
356.500000	-1.237064 
357.000000	-1.290830 
357.500000	-1.226473 
358.000000	-1.014831 
358.500000	-0.692070 
359.000000	-0.329026 
359.500000	-0.070882 
360.000000	0.202665  
360.500000	0.420924  
361.000000	0.612493  
361.500000	0.691437  
362.000000	0.712924  
362.500000	0.693974  
363.000000	0.632427  
363.500000	0.556717  
364.000000	0.392335  
364.500000	0.253103  
365.000000	0.167665  
365.500000	0.112348  
366.000000	0.029266  
366.500000	0.044756  
367.000000	0.083496  
367.500000	0.154611  
368.000000	0.205817  
368.500000	0.232888  
369.000000	0.248286  
369.500000	0.330100  
370.000000	0.417649  
370.500000	0.385306  
371.000000	0.422379  
371.500000	0.451587  
372.000000	0.505273  
372.500000	0.546850  
373.000000	0.615020  
373.500000	0.632782  
374.000000	0.691549  
374.500000	0.850595  
375.000000	0.959791  
375.500000	1.083176  
376.000000	1.180300  
376.500000	1.296910  
377.000000	1.403660  
377.500000	1.478300  
378.000000	1.438751  
378.500000	1.331653  
379.000000	1.240873  
379.500000	1.162585  
380.000000	1.059901  
380.500000	0.987823  
381.000000	0.968751  
381.500000	0.991446  
382.000000	1.068070  
382.500000	1.141964  
383.000000	1.183703  
383.500000	1.178424  
384.000000	1.192244  
384.500000	1.064852  
385.000000	0.893662  
385.500000	0.761060  
386.000000	0.638169  
386.500000	0.535243  
387.000000	0.455135  
387.500000	0.474596  
388.000000	0.550344  
388.500000	0.726149  
389.000000	0.843342  
389.500000	0.902424  
390.000000	0.977096  
390.500000	1.021023  
391.000000	0.999618  
391.500000	0.896566  
392.000000	0.845331  
392.500000	0.801844  
393.000000	0.783869  
393.500000	0.712101  
394.000000	0.618087  
394.500000	0.504635  
395.000000	0.437191  
395.500000	0.379586  
396.000000	0.300947  
396.500000	0.319610  
397.000000	0.423973  
397.500000	0.535211  
398.000000	0.630840  
398.500000	0.723117  
399.000000	0.753292  
399.500000	0.750274  
400.000000	0.683177  
400.500000	0.568923  
401.000000	0.465888  
401.500000	0.411837  
402.000000	0.365288  
402.500000	0.325383  
403.000000	0.357643  
403.500000	0.418389  
404.000000	0.516176  
404.500000	0.606732  
405.000000	0.698014  
405.500000	0.792114  
406.000000	0.890123  
406.500000	0.957333  
407.000000	0.973883  
407.500000	0.956307  
408.000000	0.932583  
408.500000	0.921718  
409.000000	0.901960  
409.500000	0.883993  
410.000000	0.886096  
410.500000	0.902210  
411.000000	0.909995  
411.500000	0.892055  
412.000000	0.854091  
412.500000	0.779877  
413.000000	0.720679  
413.500000	0.673248  
414.000000	0.648569  
414.500000	0.665752  
415.000000	0.708014  
415.500000	0.746875  
416.000000	0.778054  
416.500000	0.822267  
417.000000	0.843566  
417.500000	0.840239  
418.000000	0.805030  
418.500000	0.760534  
419.000000	0.733779  
419.500000	0.727762  
420.000000	0.724295  
420.500000	0.707727  
421.000000	0.698843  
421.500000	0.714282  
422.000000	0.711289  
422.500000	0.680114  
423.000000	0.619710  
423.500000	0.582350  
424.000000	0.550984  
424.500000	0.520117  
425.000000	0.487784  
425.500000	0.470418  
426.000000	0.495928  
426.500000	0.529801  
427.000000	0.572010  
427.500000	0.592266  
428.000000	0.612475  
428.500000	0.633676  
429.000000	0.631225  
429.500000	0.600702  
430.000000	0.556384  
430.500000	0.514823  
431.000000	0.468381  
431.500000	0.441918  
432.000000	0.424690  
432.500000	0.429066  
433.000000	0.452026  
433.500000	0.475192  
434.000000	0.484705  
434.500000	0.474654  
435.000000	0.448028  
435.500000	0.396970  
436.000000	0.347992  
436.500000	0.323604  
437.000000	0.337093  
437.500000	0.389217  
438.000000	0.469616  
438.500000	0.577233  
439.000000	0.687861  
439.500000	0.770448  
440.000000	0.812993  
440.500000	0.815199  
441.000000	0.771875  
441.500000	0.705289  
442.000000	0.646963  
442.500000	0.586395  
443.000000	0.533402  
443.500000	0.507759  
444.000000	0.481489  
444.500000	0.466653  

