PE FL                   SPECTRUM    ASCII       PEDS        1.60        
  -1
PPA065~1
23/10/10
16:02:58.00
23/10/10
16:02:58.00


444.500000
1









LS55
10.00
5.00
5.00
SCAN
1
20
100
100
0
500
0
2
0
1
7
ON
500 450 
1 0 0
#HDR
-1
-1
#GR
NM

0.00002384185791015625
0.0
250.000000
0.500000
390
8
3.538750
-4.999999
#DATA
250.000000	-4.999999 
250.500000	-4.368151 
251.000000	-3.695377 
251.500000	-3.296265 
252.000000	-3.225004 
252.500000	-3.328468 
253.000000	-3.703143 
253.500000	-3.990297 
254.000000	-4.085960 
254.500000	-4.122967 
255.000000	-3.979437 
255.500000	-3.664369 
256.000000	-3.379795 
256.500000	-3.278445 
257.000000	-3.147265 
257.500000	-3.413671 
258.000000	-3.608873 
258.500000	-3.694271 
259.000000	-3.743001 
259.500000	-3.730854 
260.000000	-3.639738 
260.500000	-3.615396 
261.000000	-3.493967 
261.500000	-3.163839 
262.000000	-3.015314 
262.500000	-2.826222 
263.000000	-2.608478 
263.500000	-2.225780 
264.000000	-1.750286 
264.500000	-1.226015 
265.000000	-1.042983 
265.500000	-0.972327 
266.000000	-1.047325 
266.500000	-1.306953 
267.000000	-1.753604 
267.500000	-2.240009 
268.000000	-2.556255 
268.500000	-2.612851 
269.000000	-2.346540 
269.500000	-2.309588 
270.000000	-2.155356 
270.500000	-2.110438 
271.000000	-2.043248 
271.500000	-2.293959 
272.000000	-2.789614 
272.500000	-3.216346 
273.000000	-3.473059 
273.500000	-3.467426 
274.000000	-3.500820 
274.500000	-3.503198 
275.000000	-3.439239 
275.500000	-3.059344 
276.000000	-2.821274 
276.500000	-2.783998 
277.000000	-2.893488 
277.500000	-2.805529 
278.000000	-2.409119 
278.500000	-1.786115 
279.000000	-1.232783 
279.500000	-0.889591 
280.000000	-0.521802 
280.500000	-0.315862 
281.000000	-0.369886 
281.500000	-0.932931 
282.000000	-1.720323 
282.500000	-2.547517 
283.000000	-2.989910 
283.500000	-3.269604 
284.000000	-3.506511 
284.500000	-3.557150 
285.000000	-3.243648 
285.500000	-2.527127 
286.000000	-1.811413 
286.500000	-1.168636 
287.000000	-0.795852 
287.500000	-0.464765 
288.000000	-0.236670 
288.500000	-0.253176 
289.000000	-0.579772 
289.500000	-1.001307 
290.000000	-1.481925 
290.500000	-2.041433 
291.000000	-2.523585 
291.500000	-3.035838 
292.000000	-3.518618 
292.500000	-3.809419 
293.000000	-4.073129 
293.500000	-4.067146 
294.000000	-3.796866 
294.500000	-3.313943 
295.000000	-2.678597 
295.500000	-1.950646 
296.000000	-1.287816 
296.500000	-1.035600 
297.000000	-0.997161 
297.500000	-1.194087 
298.000000	-1.295442 
298.500000	-1.391387 
299.000000	-1.415036 
299.500000	-1.374017 
300.000000	-1.058216 
300.500000	-0.588607 
301.000000	-0.508349 
301.500000	-0.552865 
302.000000	-0.725977 
302.500000	-1.002277 
303.000000	-1.398534 
303.500000	-1.862522 
304.000000	-2.270529 
304.500000	-2.451743 
305.000000	-2.295283 
305.500000	-2.289132 
306.000000	-2.302611 
306.500000	-2.080348 
307.000000	-1.805534 
307.500000	-1.659299 
308.000000	-1.642155 
308.500000	-1.659069 
309.000000	-1.637950 
309.500000	-1.470604 
310.000000	-1.318818 
310.500000	-1.147076 
311.000000	-0.629560 
311.500000	0.105548  
312.000000	0.689390  
312.500000	1.007398  
313.000000	1.272805  
313.500000	1.373436  
314.000000	1.208848  
314.500000	0.881379  
315.000000	0.314479  
315.500000	-0.171997 
316.000000	-0.471696 
316.500000	-0.689109 
317.000000	-0.665960 
317.500000	-0.417552 
318.000000	0.057151  
318.500000	0.573623  
319.000000	1.184135  
319.500000	1.814889  
320.000000	2.549108  
320.500000	3.019580  
321.000000	3.132978  
321.500000	3.183894  
322.000000	3.213183  
322.500000	2.995258  
323.000000	2.594976  
323.500000	2.182271  
324.000000	1.848562  
324.500000	1.775902  
325.000000	1.756464  
325.500000	1.634444  
326.000000	1.618942  
326.500000	1.738162  
327.000000	1.768283  
327.500000	1.738530  
328.000000	1.704048  
328.500000	1.579267  
329.000000	1.391814  
329.500000	1.250734  
330.000000	1.268400  
330.500000	1.279858  
331.000000	1.309986  
331.500000	1.335645  
332.000000	1.486370  
332.500000	1.621376  
333.000000	1.682149  
333.500000	1.494364  
334.000000	1.144766  
334.500000	1.041702  
335.000000	1.031847  
335.500000	1.005978  
336.000000	1.084564  
336.500000	1.404478  
337.000000	1.720927  
337.500000	2.042334  
338.000000	2.192480  
338.500000	2.088609  
339.000000	2.103185  
339.500000	2.050835  
340.000000	1.957753  
340.500000	1.917056  
341.000000	2.073561  
341.500000	2.196590  
342.000000	2.254498  
342.500000	2.117816  
343.000000	1.899845  
343.500000	1.789686  
344.000000	1.668200  
344.500000	1.643486  
345.000000	1.742686  
345.500000	1.980448  
346.000000	2.330525  
346.500000	2.662314  
347.000000	2.836892  
347.500000	2.839453  
348.000000	2.808590  
348.500000	2.592031  
349.000000	2.326152  
349.500000	2.033100  
350.000000	1.781578  
350.500000	1.717767  
351.000000	1.767547  
351.500000	1.942297  
352.000000	2.142695  
352.500000	2.415320  
353.000000	2.703519  
353.500000	2.950208  
354.000000	3.114480  
354.500000	3.113954  
355.000000	3.072893  
355.500000	2.962683  
356.000000	2.840495  
356.500000	2.728349  
357.000000	2.626467  
357.500000	2.566010  
358.000000	2.484899  
358.500000	2.432169  
359.000000	2.320706  
359.500000	2.238050  
360.000000	2.184120  
360.500000	2.118853  
361.000000	2.161766  
361.500000	2.217562  
362.000000	2.356731  
362.500000	2.444838  
363.000000	2.494059  
363.500000	2.435904  
364.000000	2.347482  
364.500000	2.258237  
365.000000	2.052494  
365.500000	1.931318  
366.000000	1.837293  
366.500000	1.910074  
367.000000	2.085670  
367.500000	2.287168  
368.000000	2.495316  
368.500000	2.739993  
369.000000	3.128700  
369.500000	3.367114  
370.000000	3.532840  
370.500000	3.538750  
371.000000	3.492684  
371.500000	3.371359  
372.000000	3.201417  
372.500000	3.011399  
373.000000	2.774760  
373.500000	2.795222  
374.000000	2.874958  
374.500000	2.910799  
375.000000	2.981924  
375.500000	3.024348  
376.000000	2.996974  
376.500000	2.907962  
377.000000	2.812810  
377.500000	2.643924  
378.000000	2.577061  
378.500000	2.591482  
379.000000	2.559479  
379.500000	2.552077  
380.000000	2.579733  
380.500000	2.573461  
381.000000	2.480559  
381.500000	2.384549  
382.000000	2.287386  
382.500000	2.232377  
383.000000	2.286329  
383.500000	2.343384  
384.000000	2.336082  
384.500000	2.347811  
385.000000	2.363365  
385.500000	2.319231  
386.000000	2.216614  
386.500000	2.106140  
387.000000	2.023312  
387.500000	2.016351  
388.000000	2.167142  
388.500000	2.288917  
389.000000	2.437499  
389.500000	2.535934  
390.000000	2.642184  
390.500000	2.708423  
391.000000	2.729699  
391.500000	2.645769  
392.000000	2.548052  
392.500000	2.503261  
393.000000	2.469637  
393.500000	2.408487  
394.000000	2.248293  
394.500000	2.123460  
395.000000	2.047394  
395.500000	2.069405  
396.000000	2.091797  
396.500000	2.133845  
397.000000	2.222048  
397.500000	2.356521  
398.000000	2.451536  
398.500000	2.432053  
399.000000	2.373372  
399.500000	2.341934  
400.000000	2.316064  
400.500000	2.258245  
401.000000	2.223277  
401.500000	2.197950  
402.000000	2.236905  
402.500000	2.280205  
403.000000	2.313646  
403.500000	2.304029  
404.000000	2.359217  
404.500000	2.415002  
405.000000	2.458047  
405.500000	2.460407  
406.000000	2.397410  
406.500000	2.309479  
407.000000	2.219862  
407.500000	2.187908  
408.000000	2.134138  
408.500000	2.145425  
409.000000	2.192798  
409.500000	2.278381  
410.000000	2.362434  
410.500000	2.383610  
411.000000	2.351857  
411.500000	2.298787  
412.000000	2.293721  
412.500000	2.306068  
413.000000	2.324089  
413.500000	2.375653  
414.000000	2.487472  
414.500000	2.624469  
415.000000	2.716603  
415.500000	2.750461  
416.000000	2.724682  
416.500000	2.681107  
417.000000	2.603914  
417.500000	2.480340  
418.000000	2.350096  
418.500000	2.250127  
419.000000	2.203205  
419.500000	2.173496  
420.000000	2.172278  
420.500000	2.180725  
421.000000	2.197873  
421.500000	2.216880  
422.000000	2.180392  
422.500000	2.089947  
423.000000	1.984552  
423.500000	1.885070  
424.000000	1.805031  
424.500000	1.753911  
425.000000	1.720095  
425.500000	1.719051  
426.000000	1.771461  
426.500000	1.846592  
427.000000	1.895973  
427.500000	1.945926  
428.000000	1.967175  
428.500000	1.969592  
429.000000	1.939815  
429.500000	1.888663  
430.000000	1.816111  
430.500000	1.759247  
431.000000	1.728256  
431.500000	1.691199  
432.000000	1.688559  
432.500000	1.701446  
433.000000	1.731288  
433.500000	1.748495  
434.000000	1.754072  
434.500000	1.744225  
435.000000	1.737133  
435.500000	1.741443  
436.000000	1.739624  
436.500000	1.745162  
437.000000	1.765374  
437.500000	1.775839  
438.000000	1.768950  
438.500000	1.749004  
439.000000	1.704962  
439.500000	1.653854  
440.000000	1.606175  
440.500000	1.551757  
441.000000	1.504403  
441.500000	1.496241  
442.000000	1.507577  
442.500000	1.521869  
443.000000	1.557647  
443.500000	1.601674  
444.000000	1.643462  
444.500000	1.695737  

