PE FL                   SPECTRUM    ASCII       PEDS        1.60        
  -1
PPA075~1
23/10/10
16:03:38.00
23/10/10
16:03:38.00


444.500000
1









LS55
15.00
5.00
5.00
SCAN
1
20
100
100
0
500
0
2
0
1
7
ON
500 450 
1 0 0
#HDR
-1
-1
#GR
NM

0.00002384185791015625
0.0
250.000000
0.500000
390
8
4.128732
-4.999999
#DATA
250.000000	-4.999999 
250.500000	-4.074674 
251.000000	-3.250410 
251.500000	-2.454872 
252.000000	-1.961617 
252.500000	-1.738590 
253.000000	-1.868431 
253.500000	-2.014909 
254.000000	-2.388826 
254.500000	-2.931176 
255.000000	-3.346252 
255.500000	-3.523977 
256.000000	-3.403812 
256.500000	-3.237994 
257.000000	-3.101470 
257.500000	-2.975022 
258.000000	-2.670079 
258.500000	-2.478402 
259.000000	-2.569642 
259.500000	-2.708713 
260.000000	-2.719838 
260.500000	-2.708405 
261.000000	-2.716046 
261.500000	-2.832637 
262.000000	-3.120913 
262.500000	-3.224504 
263.000000	-3.164985 
263.500000	-3.186230 
264.000000	-3.059108 
264.500000	-2.716530 
265.000000	-2.394314 
265.500000	-2.163834 
266.000000	-2.136974 
266.500000	-2.468305 
267.000000	-2.687220 
267.500000	-2.809083 
268.000000	-3.010281 
268.500000	-3.039814 
269.000000	-2.935064 
269.500000	-3.052643 
270.000000	-2.839953 
270.500000	-2.486745 
271.000000	-2.336381 
271.500000	-2.188086 
272.000000	-1.953207 
272.500000	-1.707493 
273.000000	-1.704675 
273.500000	-1.519090 
274.000000	-1.496893 
274.500000	-1.506543 
275.000000	-1.269165 
275.500000	-0.831322 
276.000000	-0.269511 
276.500000	0.312102  
277.000000	0.940386  
277.500000	0.905346  
278.000000	0.738377  
278.500000	0.226674  
279.000000	-0.980676 
279.500000	-2.403207 
280.000000	-3.400369 
280.500000	-4.149067 
281.000000	-4.481247 
281.500000	-4.033913 
282.000000	-3.723359 
282.500000	-2.876293 
283.000000	-1.519331 
283.500000	-0.258345 
284.000000	0.576242  
284.500000	1.287685  
285.000000	1.520077  
285.500000	1.197794  
286.000000	0.519739  
286.500000	-0.812353 
287.000000	-1.990601 
287.500000	-3.003417 
288.000000	-3.646386 
288.500000	-4.051343 
289.000000	-4.010483 
289.500000	-3.748592 
290.000000	-3.404227 
290.500000	-3.051085 
291.000000	-3.294335 
291.500000	-3.423750 
292.000000	-3.502857 
292.500000	-3.588999 
293.000000	-3.611266 
293.500000	-3.502075 
294.000000	-3.224726 
294.500000	-2.553256 
295.000000	-1.805679 
295.500000	-1.400260 
296.000000	-0.983578 
296.500000	-0.529012 
297.000000	-0.344500 
297.500000	-0.597716 
298.000000	-1.060257 
298.500000	-1.665066 
299.000000	-2.006215 
299.500000	-2.319155 
300.000000	-2.567792 
300.500000	-2.652366 
301.000000	-2.514928 
301.500000	-2.013161 
302.000000	-1.868518 
302.500000	-1.635752 
303.000000	-1.445805 
303.500000	-0.972045 
304.000000	-0.722483 
304.500000	-0.271607 
305.000000	0.250891  
305.500000	0.417365  
306.000000	0.534706  
306.500000	0.239949  
307.000000	-0.046791 
307.500000	-0.252030 
308.000000	-0.311370 
308.500000	-0.656378 
309.000000	-0.666977 
309.500000	-0.333184 
310.000000	-0.091117 
310.500000	0.014269  
311.000000	0.130943  
311.500000	0.362236  
312.000000	0.827683  
312.500000	1.454795  
313.000000	1.639455  
313.500000	1.754722  
314.000000	1.953236  
314.500000	2.302589  
315.000000	2.116235  
315.500000	1.878712  
316.000000	1.648605  
316.500000	1.719543  
317.000000	2.279518  
317.500000	2.729807  
318.000000	3.170652  
318.500000	3.534188  
319.000000	3.987516  
319.500000	4.128732  
320.000000	3.860995  
320.500000	3.390973  
321.000000	2.781030  
321.500000	2.329635  
322.000000	1.811019  
322.500000	1.337038  
323.000000	0.910053  
323.500000	0.632302  
324.000000	0.481100  
324.500000	0.121007  
325.000000	-0.092237 
325.500000	-0.098546 
326.000000	0.060528  
326.500000	0.403716  
327.000000	0.881011  
327.500000	1.381459  
328.000000	1.825287  
328.500000	2.222471  
329.000000	2.238406  
329.500000	2.224147  
330.000000	2.351864  
330.500000	2.481803  
331.000000	2.689074  
331.500000	2.889905  
332.000000	2.874030  
332.500000	2.902778  
333.000000	2.902768  
333.500000	2.617396  
334.000000	2.193179  
334.500000	1.880216  
335.000000	1.743556  
335.500000	1.815159  
336.000000	2.059447  
336.500000	2.128866  
337.000000	2.319329  
337.500000	2.523242  
338.000000	2.677073  
338.500000	2.728132  
339.000000	2.654113  
339.500000	2.679046  
340.000000	2.727907  
340.500000	2.818337  
341.000000	2.743034  
341.500000	2.688829  
342.000000	2.610807  
342.500000	2.520372  
343.000000	2.302531  
343.500000	1.895996  
344.000000	1.531632  
344.500000	1.202665  
345.000000	0.963646  
345.500000	0.908943  
346.000000	1.086452  
346.500000	1.392976  
347.000000	1.775688  
347.500000	2.184617  
348.000000	2.473855  
348.500000	2.646056  
349.000000	2.694529  
349.500000	2.538212  
350.000000	2.279372  
350.500000	2.067495  
351.000000	1.888527  
351.500000	1.787818  
352.000000	1.747771  
352.500000	1.853261  
353.000000	2.039978  
353.500000	2.292552  
354.000000	2.514473  
354.500000	2.578544  
355.000000	2.724495  
355.500000	2.801177  
356.000000	2.875899  
356.500000	2.892763  
357.000000	2.912831  
357.500000	2.934150  
358.000000	2.996655  
358.500000	3.050788  
359.000000	2.932805  
359.500000	2.853722  
360.000000	2.714534  
360.500000	2.594468  
361.000000	2.480541  
361.500000	2.366660  
362.000000	2.237650  
362.500000	2.232799  
363.000000	2.322778  
363.500000	2.407086  
364.000000	2.590011  
364.500000	2.784555  
365.000000	2.912513  
365.500000	3.077120  
366.000000	3.191204  
366.500000	3.139255  
367.000000	3.023926  
367.500000	2.778281  
368.000000	2.461609  
368.500000	2.183974  
369.000000	2.026232  
369.500000	1.850609  
370.000000	1.835018  
370.500000	1.958975  
371.000000	2.108199  
371.500000	2.313838  
372.000000	2.478072  
372.500000	2.551475  
373.000000	2.600285  
373.500000	2.653599  
374.000000	2.630388  
374.500000	2.573695  
375.000000	2.606444  
375.500000	2.630689  
376.000000	2.732655  
376.500000	2.794484  
377.000000	2.783908  
377.500000	2.764422  
378.000000	2.783560  
378.500000	2.787605  
379.000000	2.676540  
379.500000	2.647950  
380.000000	2.587891  
380.500000	2.551692  
381.000000	2.491699  
381.500000	2.402226  
382.000000	2.408662  
382.500000	2.443896  
383.000000	2.564299  
383.500000	2.570046  
384.000000	2.581225  
384.500000	2.551476  
385.000000	2.514875  
385.500000	2.396117  
386.000000	2.207789  
386.500000	2.081759  
387.000000	1.974962  
387.500000	1.950534  
388.000000	1.948424  
388.500000	1.989942  
389.000000	2.127599  
389.500000	2.308048  
390.000000	2.450903  
390.500000	2.557250  
391.000000	2.730883  
391.500000	2.852759  
392.000000	2.946927  
392.500000	2.960678  
393.000000	2.916060  
393.500000	2.871558  
394.000000	2.807548  
394.500000	2.671156  
395.000000	2.581991  
395.500000	2.563084  
396.000000	2.575605  
396.500000	2.636934  
397.000000	2.676861  
397.500000	2.698890  
398.000000	2.730855  
398.500000	2.764988  
399.000000	2.709396  
399.500000	2.643677  
400.000000	2.630292  
400.500000	2.610861  
401.000000	2.606335  
401.500000	2.571762  
402.000000	2.560102  
402.500000	2.541809  
403.000000	2.534076  
403.500000	2.486803  
404.000000	2.427950  
404.500000	2.412146  
405.000000	2.423274  
405.500000	2.457404  
406.000000	2.457107  
406.500000	2.458106  
407.000000	2.419500  
407.500000	2.386204  
408.000000	2.357078  
408.500000	2.340251  
409.000000	2.373541  
409.500000	2.450835  
410.000000	2.604114  
410.500000	2.725895  
411.000000	2.829667  
411.500000	2.888457  
412.000000	2.904560  
412.500000	2.847606  
413.000000	2.779591  
413.500000	2.693635  
414.000000	2.580375  
414.500000	2.524957  
415.000000	2.496663  
415.500000	2.490312  
416.000000	2.500476  
416.500000	2.537357  
417.000000	2.509523  
417.500000	2.482890  
418.000000	2.442085  
418.500000	2.339387  
419.000000	2.235749  
419.500000	2.149443  
420.000000	2.050561  
420.500000	1.965168  
421.000000	1.934298  
421.500000	1.883583  
422.000000	1.841640  
422.500000	1.826786  
423.000000	1.802346  
423.500000	1.769225  
424.000000	1.762744  
424.500000	1.754859  
425.000000	1.744067  
425.500000	1.767675  
426.000000	1.781114  
426.500000	1.778634  
427.000000	1.779675  
427.500000	1.763996  
428.000000	1.748384  
428.500000	1.756490  
429.000000	1.771983  
429.500000	1.771143  
430.000000	1.773981  
430.500000	1.791968  
431.000000	1.793244  
431.500000	1.779519  
432.000000	1.739106  
432.500000	1.697108  
433.000000	1.668478  
433.500000	1.641874  
434.000000	1.583805  
434.500000	1.523021  
435.000000	1.463784  
435.500000	1.398780  
436.000000	1.340227  
436.500000	1.282180  
437.000000	1.244832  
437.500000	1.263776  
438.000000	1.311459  
438.500000	1.359102  
439.000000	1.421129  
439.500000	1.491183  
440.000000	1.548941  
440.500000	1.590802  
441.000000	1.605901  
441.500000	1.595715  
442.000000	1.600906  
442.500000	1.596206  
443.000000	1.575965  
443.500000	1.554916  
444.000000	1.539179  
444.500000	1.521156  

