PE FL                   SPECTRUM    ASCII       PEDS        1.60        
  -1
PPA055~1
23/10/10
16:02:17.00
23/10/10
16:02:17.00


444.500000
1









LS55
5.00
5.00
5.00
SCAN
1
20
100
100
0
500
0
2
0
1
7
ON
500 450 
1 0 0
#HDR
-1
-1
#GR
NM

0.00002384185791015625
0.0
250.000000
0.500000
390
8
55.667778
-4.999999
#DATA
250.000000	-4.999999 
250.500000	-4.650753 
251.000000	-4.324122 
251.500000	-4.165235 
252.000000	-4.045341 
252.500000	-4.063028 
253.000000	-4.124684 
253.500000	-4.367772 
254.000000	-4.542809 
254.500000	-4.621177 
255.000000	-4.609265 
255.500000	-4.464252 
256.000000	-4.478131 
256.500000	-4.339726 
257.000000	-4.093048 
257.500000	-3.668987 
258.000000	-3.299562 
258.500000	-2.965781 
259.000000	-2.627291 
259.500000	-2.315006 
260.000000	-2.090802 
260.500000	-2.328444 
261.000000	-2.668560 
261.500000	-3.073663 
262.000000	-3.485702 
262.500000	-3.770929 
263.000000	-4.057040 
263.500000	-4.182657 
264.000000	-4.035303 
264.500000	-4.023502 
265.000000	-3.848190 
265.500000	-3.206586 
266.000000	-2.156941 
266.500000	-1.005218 
267.000000	0.291844  
267.500000	1.424759  
268.000000	2.145500  
268.500000	2.552294  
269.000000	2.006652  
269.500000	0.990110  
270.000000	-0.163612 
270.500000	-1.067464 
271.000000	-1.840220 
271.500000	-2.215882 
272.000000	-2.233181 
272.500000	-2.220036 
273.000000	-2.097533 
273.500000	-2.516011 
274.000000	-2.942031 
274.500000	-3.466787 
275.000000	-3.834864 
275.500000	-4.030908 
276.000000	-3.966405 
276.500000	-3.565095 
277.000000	-3.232703 
277.500000	-2.996046 
278.000000	-3.125680 
278.500000	-3.238849 
279.000000	-3.414444 
279.500000	-3.766571 
280.000000	-3.856730 
280.500000	-3.733739 
281.000000	-3.331472 
281.500000	-2.948139 
282.000000	-2.254738 
282.500000	-1.737005 
283.000000	-1.338412 
283.500000	-1.213375 
284.000000	-1.580766 
284.500000	-1.821418 
285.000000	-1.946527 
285.500000	-1.875210 
286.000000	-1.911891 
286.500000	-1.730428 
287.000000	-1.309608 
287.500000	-0.857816 
288.000000	-0.646263 
288.500000	-0.997489 
289.000000	-1.483755 
289.500000	-2.052993 
290.000000	-2.722272 
290.500000	-3.332684 
291.000000	-3.713180 
291.500000	-3.783286 
292.000000	-3.449524 
292.500000	-3.163225 
293.000000	-2.845196 
293.500000	-2.561774 
294.000000	-2.514957 
294.500000	-2.669913 
295.000000	-2.636576 
295.500000	-2.508296 
296.000000	-2.544929 
296.500000	-2.533908 
297.000000	-2.500644 
297.500000	-2.248107 
298.000000	-1.708653 
298.500000	-1.354265 
299.000000	-1.235422 
299.500000	-0.981408 
300.000000	-0.740526 
300.500000	-0.772662 
301.000000	-1.000874 
301.500000	-1.462580 
302.000000	-1.918425 
302.500000	-2.030045 
303.000000	-2.134015 
303.500000	-2.225219 
304.000000	-1.987035 
304.500000	-1.680807 
305.000000	-1.480849 
305.500000	-1.526449 
306.000000	-1.751266 
306.500000	-2.185626 
307.000000	-2.710743 
307.500000	-3.072545 
308.000000	-3.453705 
308.500000	-3.514649 
309.000000	-3.516666 
309.500000	-3.334002 
310.000000	-3.179584 
310.500000	-2.879105 
311.000000	-2.451325 
311.500000	-2.042461 
312.000000	-1.490128 
312.500000	-1.035885 
313.000000	-0.622344 
313.500000	-0.274848 
314.000000	0.147030  
314.500000	0.245121  
315.000000	0.261307  
315.500000	0.395698  
316.000000	0.542835  
316.500000	0.901893  
317.000000	1.432660  
317.500000	1.941231  
318.000000	2.349936  
318.500000	2.844685  
319.000000	3.010172  
319.500000	2.930432  
320.000000	2.821436  
320.500000	2.817987  
321.000000	3.122931  
321.500000	3.920991  
322.000000	4.985679  
322.500000	6.165970  
323.000000	7.502506  
323.500000	8.621388  
324.000000	9.339173  
324.500000	9.776265  
325.000000	9.667472  
325.500000	9.283977  
326.000000	8.961739  
326.500000	8.858692  
327.000000	8.787434  
327.500000	9.016036  
328.000000	9.347096  
328.500000	9.793247  
329.000000	10.435343 
329.500000	10.797133 
330.000000	10.946836 
330.500000	10.994471 
331.000000	11.040639 
331.500000	11.004726 
332.000000	11.163496 
332.500000	11.345970 
333.000000	11.597057 
333.500000	12.133846 
334.000000	12.500222 
334.500000	12.856662 
335.000000	13.358297 
335.500000	13.753230 
336.000000	13.987819 
336.500000	14.272217 
337.000000	14.688416 
337.500000	15.242505 
338.000000	15.877188 
338.500000	16.341852 
339.000000	16.672287 
339.500000	17.152931 
340.000000	17.403013 
340.500000	17.462655 
341.000000	17.341337 
341.500000	17.233601 
342.000000	17.032028 
342.500000	16.754658 
343.000000	16.407095 
343.500000	15.916829 
344.000000	15.575599 
344.500000	15.335327 
345.000000	15.446633 
345.500000	15.780142 
346.000000	16.403555 
346.500000	17.264553 
347.000000	18.205465 
347.500000	19.494324 
348.000000	20.822384 
348.500000	21.941449 
349.000000	22.721447 
349.500000	23.510743 
350.000000	24.317592 
350.500000	25.248485 
351.000000	26.026651 
351.500000	26.673843 
352.000000	27.591662 
352.500000	28.852410 
353.000000	30.015571 
353.500000	30.854055 
354.000000	31.693643 
354.500000	32.637335 
355.000000	33.935927 
355.500000	35.349789 
356.000000	36.730274 
356.500000	38.294169 
357.000000	40.141043 
357.500000	42.209321 
358.000000	44.249416 
358.500000	46.108300 
359.000000	47.554488 
359.500000	48.828414 
360.000000	50.129386 
360.500000	51.366423 
361.000000	52.219736 
361.500000	52.663839 
362.000000	52.921681 
362.500000	53.024780 
363.000000	52.992870 
363.500000	52.603700 
364.000000	51.835039 
364.500000	50.998541 
365.000000	50.662617 
365.500000	50.520995 
366.000000	50.281097 
366.500000	49.898398 
367.000000	49.756941 
367.500000	49.660378 
368.000000	49.498392 
368.500000	49.179858 
369.000000	48.419317 
369.500000	47.999529 
370.000000	47.817031 
370.500000	47.757081 
371.000000	47.616217 
371.500000	47.688394 
372.000000	47.929885 
372.500000	48.120872 
373.000000	48.616756 
373.500000	48.843232 
374.000000	49.253973 
374.500000	49.953254 
375.000000	50.842640 
375.500000	51.621442 
376.000000	52.444860 
376.500000	53.385676 
377.000000	53.850982 
377.500000	54.197017 
378.000000	54.239750 
378.500000	53.948773 
379.000000	53.193309 
379.500000	52.234816 
380.000000	51.253597 
380.500000	50.454252 
381.000000	50.118005 
381.500000	49.776067 
382.000000	49.528755 
382.500000	49.563936 
383.000000	49.775732 
383.500000	49.475437 
384.000000	48.781559 
384.500000	47.435385 
385.000000	45.989149 
385.500000	44.746734 
386.000000	43.633878 
386.500000	42.486494 
387.000000	41.574191 
387.500000	41.033102 
388.000000	40.395750 
388.500000	39.633735 
389.000000	38.134401 
389.500000	36.193005 
390.000000	34.018313 
390.500000	31.887334 
391.000000	29.655658 
391.500000	27.415288 
392.000000	25.398546 
392.500000	23.700741 
393.000000	22.560435 
393.500000	21.634636 
394.000000	20.944111 
394.500000	20.523181 
395.000000	20.489776 
395.500000	20.724202 
396.000000	21.134300 
396.500000	21.525074 
397.000000	21.635531 
397.500000	21.456519 
398.000000	20.946823 
398.500000	20.175175 
399.000000	19.186569 
399.500000	18.083140 
400.000000	17.036779 
400.500000	16.213383 
401.000000	15.734419 
401.500000	15.356541 
402.000000	15.110520 
402.500000	14.942808 
403.000000	14.807190 
403.500000	14.652698 
404.000000	14.394635 
404.500000	14.100880 
405.000000	13.770163 
405.500000	13.516854 
406.000000	13.145467 
406.500000	12.734278 
407.000000	12.205633 
407.500000	11.629999 
408.000000	11.125365 
408.500000	10.624887 
409.000000	10.287444 
409.500000	10.056636 
410.000000	10.041753 
410.500000	10.106845 
411.000000	10.307982 
411.500000	10.531638 
412.000000	10.705908 
412.500000	10.921160 
413.000000	11.084169 
413.500000	11.250724 
414.000000	11.342420 
414.500000	11.386896 
415.000000	11.462902 
415.500000	11.637374 
416.000000	11.920402 
416.500000	12.140784 
417.000000	12.389213 
417.500000	12.719867 
418.000000	13.122074 
418.500000	13.563929 
419.000000	13.788558 
419.500000	13.914428 
420.000000	14.110298 
420.500000	14.420675 
421.000000	14.663580 
421.500000	14.916499 
422.000000	15.299008 
422.500000	15.764707 
423.000000	16.460912 
423.500000	17.071358 
424.000000	17.562447 
424.500000	18.073182 
425.000000	18.755428 
425.500000	19.389220 
426.000000	19.953119 
426.500000	20.429291 
427.000000	20.767068 
427.500000	21.131887 
428.000000	21.448672 
428.500000	21.605720 
429.000000	21.680190 
429.500000	21.936608 
430.000000	22.439349 
430.500000	23.353361 
431.000000	24.570840 
431.500000	26.070778 
432.000000	27.842064 
432.500000	30.021749 
433.000000	32.417793 
433.500000	34.632531 
434.000000	36.646323 
434.500000	38.450581 
435.000000	40.150296 
435.500000	41.676452 
436.000000	42.864260 
436.500000	43.547359 
437.000000	44.097525 
437.500000	44.528705 
438.000000	44.739043 
438.500000	44.687305 
439.000000	44.516756 
439.500000	44.467630 
440.000000	44.938418 
440.500000	45.781898 
441.000000	46.781610 
441.500000	48.192264 
442.000000	49.842729 
442.500000	51.545095 
443.000000	53.168557 
443.500000	54.409296 
444.000000	55.103650 
444.500000	55.667778 

