PE FL                   SPECTRUM    ASCII       PEDS        1.60        
  -1
PPA095~1
23/10/10
16:04:59.00
23/10/10
16:04:59.00


444.500000
1









LS55
25.00
5.00
5.00
SCAN
1
20
100
100
0
500
0
2
0
1
7
ON
500 450 
1 0 0
#HDR
-1
-1
#GR
NM

0.00002384185791015625
0.0
250.000000
0.500000
390
8
4.145128
-5.000000
#DATA
250.000000	-5.000000 
250.500000	-4.276137 
251.000000	-3.781742 
251.500000	-3.457725 
252.000000	-3.379159 
252.500000	-3.369155 
253.000000	-3.233316 
253.500000	-2.887762 
254.000000	-2.487465 
254.500000	-2.173599 
255.000000	-1.644578 
255.500000	-1.225964 
256.000000	-1.031775 
256.500000	-1.264579 
257.000000	-1.542201 
257.500000	-1.707562 
258.000000	-1.761650 
258.500000	-1.899196 
259.000000	-2.268658 
259.500000	-2.310002 
260.000000	-2.216670 
260.500000	-2.103900 
261.000000	-2.305739 
261.500000	-2.505812 
262.000000	-2.568541 
262.500000	-2.546599 
263.000000	-2.577026 
263.500000	-3.051835 
264.000000	-3.460515 
264.500000	-3.891689 
265.000000	-3.800085 
265.500000	-3.792499 
266.000000	-3.325594 
266.500000	-2.331750 
267.000000	-1.180469 
267.500000	-0.026979 
268.000000	0.825297  
268.500000	1.411724  
269.000000	1.250173  
269.500000	0.751050  
270.000000	-0.226477 
270.500000	-1.231775 
271.000000	-1.968373 
271.500000	-2.642042 
272.000000	-3.198483 
272.500000	-3.458589 
273.000000	-3.368810 
273.500000	-3.352302 
274.000000	-3.511606 
274.500000	-3.681696 
275.000000	-3.893229 
275.500000	-3.788444 
276.000000	-3.509348 
276.500000	-3.350002 
277.000000	-2.956850 
277.500000	-2.538745 
278.000000	-1.916965 
278.500000	-1.843988 
279.000000	-1.824594 
279.500000	-1.923260 
280.000000	-1.879529 
280.500000	-1.742817 
281.000000	-1.735536 
281.500000	-1.668612 
282.000000	-1.687559 
282.500000	-1.634264 
283.000000	-1.796328 
283.500000	-1.971547 
284.000000	-2.056838 
284.500000	-1.829492 
285.000000	-1.357792 
285.500000	-0.760578 
286.000000	-0.158858 
286.500000	0.206433  
287.000000	0.306396  
287.500000	-0.110465 
288.000000	-1.104157 
288.500000	-2.209635 
289.000000	-3.148439 
289.500000	-3.605163 
290.000000	-3.496636 
290.500000	-2.921263 
291.000000	-1.823480 
291.500000	-0.633167 
292.000000	0.368312  
292.500000	0.865233  
293.000000	0.883302  
293.500000	0.430346  
294.000000	-0.230943 
294.500000	-1.119274 
295.000000	-1.849232 
295.500000	-2.266489 
296.000000	-2.476139 
296.500000	-2.650010 
297.000000	-2.897827 
297.500000	-2.913055 
298.000000	-2.869957 
298.500000	-2.732584 
299.000000	-2.853726 
299.500000	-2.735762 
300.000000	-2.261426 
300.500000	-1.568999 
301.000000	-1.062901 
301.500000	-0.892538 
302.000000	-0.683841 
302.500000	-0.642385 
303.000000	-0.748346 
303.500000	-1.389997 
304.000000	-2.079779 
304.500000	-2.641712 
305.000000	-2.621059 
305.500000	-2.394150 
306.000000	-2.038901 
306.500000	-1.201110 
307.000000	-0.214100 
307.500000	0.889614  
308.000000	1.725469  
308.500000	2.270017  
309.000000	2.227842  
309.500000	2.070945  
310.000000	1.550224  
310.500000	1.015206  
311.000000	0.766440  
311.500000	0.642200  
312.000000	0.743317  
312.500000	1.050601  
313.000000	1.697678  
313.500000	2.291758  
314.000000	2.796084  
314.500000	3.069661  
315.000000	3.265169  
315.500000	3.366906  
316.000000	3.286459  
316.500000	3.231496  
317.000000	3.057248  
317.500000	3.138668  
318.000000	3.353269  
318.500000	3.510061  
319.000000	3.601222  
319.500000	3.933653  
320.000000	4.079490  
320.500000	4.062199  
321.000000	4.043264  
321.500000	3.835538  
322.000000	3.611879  
322.500000	3.511699  
323.000000	3.208847  
323.500000	2.950300  
324.000000	3.128876  
324.500000	3.283931  
325.000000	3.285696  
325.500000	3.309098  
326.000000	3.349207  
326.500000	3.376096  
327.000000	3.344699  
327.500000	3.133695  
328.000000	2.875107  
328.500000	2.870622  
329.000000	2.867874  
329.500000	2.897741  
330.000000	2.831206  
330.500000	2.781947  
331.000000	2.746297  
331.500000	2.763921  
332.000000	2.687843  
332.500000	2.660193  
333.000000	2.730369  
333.500000	2.783951  
334.000000	2.874636  
334.500000	2.854020  
335.000000	2.778650  
335.500000	2.622984  
336.000000	2.374924  
336.500000	2.051416  
337.000000	1.867414  
337.500000	1.902298  
338.000000	1.985177  
338.500000	2.233135  
339.000000	2.572237  
339.500000	2.939855  
340.000000	3.136095  
340.500000	3.084019  
341.000000	2.737758  
341.500000	2.377127  
342.000000	2.062730  
342.500000	1.793747  
343.000000	1.518279  
343.500000	1.346903  
344.000000	1.405327  
344.500000	1.647912  
345.000000	1.864673  
345.500000	1.931306  
346.000000	2.052468  
346.500000	2.271311  
347.000000	2.586198  
347.500000	2.901033  
348.000000	3.204738  
348.500000	3.493914  
349.000000	3.815330  
349.500000	3.971127  
350.000000	3.803264  
350.500000	3.404149  
351.000000	2.895373  
351.500000	2.304049  
352.000000	1.858621  
352.500000	1.439418  
353.000000	1.135687  
353.500000	1.095844  
354.000000	1.267849  
354.500000	1.481809  
355.000000	1.749946  
355.500000	2.089542  
356.000000	2.297215  
356.500000	2.497292  
357.000000	2.585337  
357.500000	2.585307  
358.000000	2.597205  
358.500000	2.643490  
359.000000	2.616855  
359.500000	2.637301  
360.000000	2.786421  
360.500000	2.962781  
361.000000	3.128290  
361.500000	3.167586  
362.000000	3.123592  
362.500000	3.029188  
363.000000	2.915267  
363.500000	2.736396  
364.000000	2.551116  
364.500000	2.464020  
365.000000	2.584441  
365.500000	2.806796  
366.000000	3.032577  
366.500000	3.207875  
367.000000	3.341941  
367.500000	3.530822  
368.000000	3.711704  
368.500000	3.822129  
369.000000	3.852431  
369.500000	3.798301  
370.000000	3.819739  
370.500000	3.863470  
371.000000	3.868506  
371.500000	3.853736  
372.000000	3.887561  
372.500000	3.970219  
373.000000	4.068862  
373.500000	4.145128  
374.000000	4.050386  
374.500000	3.909042  
375.000000	3.790633  
375.500000	3.611461  
376.000000	3.400123  
376.500000	3.229233  
377.000000	3.057219  
377.500000	2.981866  
378.000000	3.004899  
378.500000	2.989852  
379.000000	3.007003  
379.500000	3.070903  
380.000000	3.205313  
380.500000	3.352787  
381.000000	3.504599  
381.500000	3.566473  
382.000000	3.602976  
382.500000	3.552729  
383.000000	3.404250  
383.500000	3.257720  
384.000000	3.121756  
384.500000	3.126305  
385.000000	3.172691  
385.500000	3.292796  
386.000000	3.434659  
386.500000	3.624643  
387.000000	3.771722  
387.500000	3.794133  
388.000000	3.784827  
388.500000	3.693979  
389.000000	3.635990  
389.500000	3.564762  
390.000000	3.483128  
390.500000	3.423088  
391.000000	3.434530  
391.500000	3.494229  
392.000000	3.546182  
392.500000	3.627709  
393.000000	3.687449  
393.500000	3.743917  
394.000000	3.764323  
394.500000	3.760056  
395.000000	3.706347  
395.500000	3.619764  
396.000000	3.568800  
396.500000	3.528794  
397.000000	3.525716  
397.500000	3.521138  
398.000000	3.520366  
398.500000	3.487524  
399.000000	3.479739  
399.500000	3.465367  
400.000000	3.414135  
400.500000	3.383292  
401.000000	3.358194  
401.500000	3.339216  
402.000000	3.296360  
402.500000	3.240134  
403.000000	3.147762  
403.500000	3.058446  
404.000000	2.980480  
404.500000	2.893949  
405.000000	2.846928  
405.500000	2.831152  
406.000000	2.838800  
406.500000	2.831115  
407.000000	2.813406  
407.500000	2.808333  
408.000000	2.817647  
408.500000	2.849270  
409.000000	2.898891  
409.500000	2.973599  
410.000000	3.060048  
410.500000	3.137465  
411.000000	3.175184  
411.500000	3.139820  
412.000000	3.067812  
412.500000	2.936932  
413.000000	2.790406  
413.500000	2.643746  
414.000000	2.528722  
414.500000	2.448859  
415.000000	2.424052  
415.500000	2.462259  
416.000000	2.533913  
416.500000	2.646416  
417.000000	2.723166  
417.500000	2.783402  
418.000000	2.803397  
418.500000	2.804965  
419.000000	2.754636  
419.500000	2.659088  
420.000000	2.558132  
420.500000	2.452524  
421.000000	2.366860  
421.500000	2.268565  
422.000000	2.185188  
422.500000	2.115929  
423.000000	2.071408  
423.500000	2.019836  
424.000000	1.973094  
424.500000	1.946605  
425.000000	1.946897  
425.500000	1.949627  
426.000000	1.929651  
426.500000	1.905945  
427.000000	1.881981  
427.500000	1.862019  
428.000000	1.836548  
428.500000	1.814236  
429.000000	1.793518  
429.500000	1.811523  
430.000000	1.837577  
430.500000	1.856495  
431.000000	1.867843  
431.500000	1.870017  
432.000000	1.851721  
432.500000	1.808745  
433.000000	1.758007  
433.500000	1.688607  
434.000000	1.645511  
434.500000	1.620707  
435.000000	1.622426  
435.500000	1.649421  
436.000000	1.682998  
436.500000	1.716168  
437.000000	1.738656  
437.500000	1.738052  
438.000000	1.709040  
438.500000	1.669618  
439.000000	1.618129  
439.500000	1.580462  
440.000000	1.549222  
440.500000	1.540249  
441.000000	1.544838  
441.500000	1.568615  
442.000000	1.586888  
442.500000	1.610201  
443.000000	1.636974  
443.500000	1.658279  
444.000000	1.675245  
444.500000	1.691230  

