PE FL                   SPECTRUM    ASCII       PEDS        1.60        
  -1
PPA0A5~1
23/10/10
16:05:39.00
23/10/10
16:05:39.00


444.500000
1









LS55
30.00
5.00
5.00
SCAN
1
20
100
100
0
500
0
2
0
1
7
ON
500 450 
1 0 0
#HDR
-1
-1
#GR
NM

0.00002384185791015625
0.0
250.000000
0.500000
390
8
7.875527
-2.744687
#DATA
250.000000	-1.409000 
250.500000	-1.113507 
251.000000	-0.908111 
251.500000	-0.793292 
252.000000	-0.684098 
252.500000	-1.346231 
253.000000	-1.500839 
253.500000	-2.030628 
254.000000	-2.241566 
254.500000	-2.108237 
255.000000	-1.709954 
255.500000	-1.216881 
256.000000	-0.509853 
256.500000	0.273541  
257.000000	0.431914  
257.500000	0.568434  
258.000000	-0.167728 
258.500000	-1.263904 
259.000000	-2.172907 
259.500000	-2.532768 
260.000000	-2.722246 
260.500000	-2.426559 
261.000000	-1.897071 
261.500000	-1.238327 
262.000000	-0.479489 
262.500000	-0.084585 
263.000000	-0.145663 
263.500000	-0.528085 
264.000000	-0.812360 
264.500000	-1.093150 
265.000000	-1.170664 
265.500000	-1.155357 
266.000000	-0.609825 
266.500000	-0.082689 
267.000000	0.464619  
267.500000	0.651058  
268.000000	0.538449  
268.500000	0.325340  
269.000000	-0.069396 
269.500000	-0.469964 
270.000000	-1.037710 
270.500000	-0.987829 
271.000000	-0.715621 
271.500000	-0.167340 
272.000000	0.435224  
272.500000	1.130895  
273.000000	1.722080  
273.500000	1.942116  
274.000000	1.915234  
274.500000	1.253457  
275.000000	0.415597  
275.500000	-0.430766 
276.000000	-1.261754 
276.500000	-1.942327 
277.000000	-2.442831 
277.500000	-2.566455 
278.000000	-2.656183 
278.500000	-2.479774 
279.000000	-2.489455 
279.500000	-2.398281 
280.000000	-2.185451 
280.500000	-2.021174 
281.000000	-1.635634 
281.500000	-1.426546 
282.000000	-1.132615 
282.500000	-0.933785 
283.000000	-0.971631 
283.500000	-1.262228 
284.000000	-1.497889 
284.500000	-2.029422 
285.000000	-2.189169 
285.500000	-1.795319 
286.000000	-1.464790 
286.500000	-1.027648 
287.000000	-0.396484 
287.500000	-0.015673 
288.000000	0.063501  
288.500000	0.020252  
289.000000	-0.839305 
289.500000	-1.572835 
290.000000	-1.944360 
290.500000	-2.238521 
291.000000	-2.356384 
291.500000	-2.119169 
292.000000	-2.023326 
292.500000	-1.863705 
293.000000	-1.768705 
293.500000	-2.005455 
294.000000	-2.264940 
294.500000	-2.315186 
295.000000	-2.161557 
295.500000	-1.819535 
296.000000	-1.252036 
296.500000	-0.785962 
297.000000	-0.279408 
297.500000	-0.270080 
298.000000	-0.544378 
298.500000	-0.979909 
299.000000	-1.442965 
299.500000	-1.865464 
300.000000	-2.310872 
300.500000	-2.631700 
301.000000	-2.744687 
301.500000	-2.443797 
302.000000	-2.185699 
302.500000	-1.905486 
303.000000	-1.817853 
303.500000	-1.522402 
304.000000	-1.188614 
304.500000	-0.653472 
305.000000	-0.337589 
305.500000	-0.044835 
306.000000	0.538231  
306.500000	1.159072  
307.000000	1.536567  
307.500000	1.765343  
308.000000	2.108391  
308.500000	2.310541  
309.000000	2.571050  
309.500000	2.623583  
310.000000	2.676521  
310.500000	2.905868  
311.000000	3.146437  
311.500000	3.362421  
312.000000	3.569711  
312.500000	4.288602  
313.000000	4.887509  
313.500000	5.590130  
314.000000	6.297321  
314.500000	7.028049  
315.000000	7.616730  
315.500000	7.818731  
316.000000	7.420937  
316.500000	6.596285  
317.000000	6.085302  
317.500000	5.590738  
318.000000	5.277899  
318.500000	5.314287  
319.000000	5.735616  
319.500000	6.460064  
320.000000	7.096594  
320.500000	7.619876  
321.000000	7.701016  
321.500000	7.875527  
322.000000	7.722271  
322.500000	7.480904  
323.000000	7.295771  
323.500000	7.102953  
324.000000	7.146074  
324.500000	7.207508  
325.000000	7.038670  
325.500000	6.655323  
326.000000	6.289762  
326.500000	5.761257  
327.000000	5.138290  
327.500000	4.529837  
328.000000	3.822636  
328.500000	3.362465  
329.000000	3.155789  
329.500000	3.019005  
330.000000	2.903625  
330.500000	3.023176  
331.000000	3.190958  
331.500000	3.272517  
332.000000	3.259421  
332.500000	3.138217  
333.000000	3.014740  
333.500000	2.883786  
334.000000	2.708363  
334.500000	2.527137  
335.000000	2.489440  
335.500000	2.587903  
336.000000	2.749875  
336.500000	2.910565  
337.000000	3.150918  
337.500000	3.513200  
338.000000	3.755533  
338.500000	3.828089  
339.000000	3.811800  
339.500000	3.760431  
340.000000	3.504316  
340.500000	3.177606  
341.000000	2.721242  
341.500000	2.301228  
342.000000	2.038005  
342.500000	1.885950  
343.000000	1.810025  
343.500000	1.927052  
344.000000	2.242598  
344.500000	2.377483  
345.000000	2.568258  
345.500000	2.739774  
346.000000	2.958522  
346.500000	3.059834  
347.000000	3.125320  
347.500000	2.971059  
348.000000	2.785314  
348.500000	2.730940  
349.000000	2.594154  
349.500000	2.456831  
350.000000	2.348515  
350.500000	2.454453  
351.000000	2.502838  
351.500000	2.588208  
352.000000	2.596104  
352.500000	2.642591  
353.000000	2.699678  
353.500000	2.721809  
354.000000	2.804727  
354.500000	2.947833  
355.000000	3.279100  
355.500000	3.553967  
356.000000	3.797953  
356.500000	3.938796  
357.000000	4.086784  
357.500000	4.075540  
358.000000	3.936081  
358.500000	3.760519  
359.000000	3.645184  
359.500000	3.643553  
360.000000	3.690148  
360.500000	3.652863  
361.000000	3.574965  
361.500000	3.606300  
362.000000	3.577942  
362.500000	3.513206  
363.000000	3.469051  
363.500000	3.562097  
364.000000	3.709924  
364.500000	3.930539  
365.000000	4.082670  
365.500000	4.169018  
366.000000	4.320699  
366.500000	4.431489  
367.000000	4.416000  
367.500000	4.425680  
368.000000	4.528801  
368.500000	4.567972  
369.000000	4.587050  
369.500000	4.458762  
370.000000	4.210540  
370.500000	3.992493  
371.000000	3.892798  
371.500000	3.737074  
372.000000	3.714122  
372.500000	3.858330  
373.000000	4.078795  
373.500000	4.380432  
374.000000	4.617038  
374.500000	4.706116  
375.000000	4.679085  
375.500000	4.670204  
376.000000	4.578891  
376.500000	4.472807  
377.000000	4.373862  
377.500000	4.196396  
378.000000	4.038939  
378.500000	3.888853  
379.000000	3.750437  
379.500000	3.662670  
380.000000	3.625657  
380.500000	3.667468  
381.000000	3.736979  
381.500000	3.818516  
382.000000	3.797905  
382.500000	3.751335  
383.000000	3.674806  
383.500000	3.546627  
384.000000	3.473311  
384.500000	3.447576  
385.000000	3.494327  
385.500000	3.608993  
386.000000	3.752338  
386.500000	3.816269  
387.000000	3.869347  
387.500000	3.900948  
388.000000	3.868492  
388.500000	3.842119  
389.000000	3.808722  
389.500000	3.762369  
390.000000	3.737507  
390.500000	3.718346  
391.000000	3.656841  
391.500000	3.571615  
392.000000	3.522280  
392.500000	3.532545  
393.000000	3.538221  
393.500000	3.557033  
394.000000	3.545819  
394.500000	3.530439  
395.000000	3.515245  
395.500000	3.476777  
396.000000	3.407135  
396.500000	3.346059  
397.000000	3.335573  
397.500000	3.331883  
398.000000	3.345929  
398.500000	3.354200  
399.000000	3.373020  
399.500000	3.392582  
400.000000	3.417465  
400.500000	3.419837  
401.000000	3.449367  
401.500000	3.505318  
402.000000	3.580096  
402.500000	3.645170  
403.000000	3.636842  
403.500000	3.605923  
404.000000	3.523453  
404.500000	3.402860  
405.000000	3.235837  
405.500000	3.078433  
406.000000	2.942644  
406.500000	2.886443  
407.000000	2.896331  
407.500000	2.915429  
408.000000	2.949091  
408.500000	2.973774  
409.000000	3.005385  
409.500000	3.014137  
410.000000	2.997743  
410.500000	2.953755  
411.000000	2.900593  
411.500000	2.887537  
412.000000	2.872916  
412.500000	2.841442  
413.000000	2.805730  
413.500000	2.779506  
414.000000	2.776906  
414.500000	2.776471  
415.000000	2.786153  
415.500000	2.778589  
416.000000	2.796984  
416.500000	2.826335  
417.000000	2.834725  
417.500000	2.816309  
418.000000	2.770628  
418.500000	2.712720  
419.000000	2.650375  
419.500000	2.595498  
420.000000	2.523561  
420.500000	2.467352  
421.000000	2.416790  
421.500000	2.379207  
422.000000	2.366460  
422.500000	2.343887  
423.000000	2.327323  
423.500000	2.292349  
424.000000	2.263797  
424.500000	2.224933  
425.000000	2.185093  
425.500000	2.128012  
426.000000	2.076230  
426.500000	2.049573  
427.000000	2.015746  
427.500000	2.001078  
428.000000	1.987056  
428.500000	1.976287  
429.000000	1.964979  
429.500000	1.967387  
430.000000	1.976127  
430.500000	1.976406  
431.000000	1.976446  
431.500000	1.947211  
432.000000	1.922798  
432.500000	1.898776  
433.000000	1.853415  
433.500000	1.803307  
434.000000	1.748748  
434.500000	1.710680  
435.000000	1.702608  
435.500000	1.701601  
436.000000	1.704775  
436.500000	1.715903  
437.000000	1.752816  
437.500000	1.783449  
438.000000	1.816037  
438.500000	1.819865  
439.000000	1.809944  
439.500000	1.812043  
440.000000	1.804056  
440.500000	1.799371  
441.000000	1.788876  
441.500000	1.807325  
442.000000	1.827067  
442.500000	1.861166  
443.000000	1.891186  
443.500000	1.905329  
444.000000	1.915425  
444.500000	1.894462  

