PE FL                   SPECTRUM    ASCII       PEDS        1.60        
  -1
PPA0C5~1
23/10/10
16:07:00.00
23/10/10
16:07:00.00


444.500000
1









LS55
40.00
5.00
5.00
SCAN
1
20
100
100
0
500
0
2
0
1
7
ON
500 450 
1 0 0
#HDR
-1
-1
#GR
NM

0.00002384185791015625
0.0
250.000000
0.500000
390
8
7.151436
-5.001681
#DATA
250.000000	-4.999999 
250.500000	-5.001681 
251.000000	-4.919011 
251.500000	-4.802835 
252.000000	-4.727917 
252.500000	-4.515553 
253.000000	-4.215015 
253.500000	-3.875571 
254.000000	-3.594841 
254.500000	-3.623930 
255.000000	-3.573032 
255.500000	-3.459893 
256.000000	-3.375651 
256.500000	-3.562399 
257.000000	-3.656405 
257.500000	-3.597313 
258.000000	-3.392570 
258.500000	-3.103148 
259.000000	-3.213415 
259.500000	-3.452758 
260.000000	-3.510524 
260.500000	-3.460290 
261.000000	-3.655485 
261.500000	-3.964756 
262.000000	-4.087485 
262.500000	-4.100856 
263.000000	-3.914957 
263.500000	-3.715634 
264.000000	-3.626923 
264.500000	-3.412965 
265.000000	-3.173619 
265.500000	-3.054225 
266.000000	-3.111580 
266.500000	-3.078671 
267.000000	-2.977694 
267.500000	-2.898435 
268.000000	-2.619594 
268.500000	-2.452621 
269.000000	-2.157130 
269.500000	-1.922159 
270.000000	-1.838209 
270.500000	-2.010845 
271.000000	-2.315556 
271.500000	-2.654501 
272.000000	-2.961932 
272.500000	-3.172334 
273.000000	-3.398845 
273.500000	-3.162725 
274.000000	-2.641695 
274.500000	-2.157290 
275.000000	-1.737068 
275.500000	-1.570207 
276.000000	-1.545586 
276.500000	-1.401927 
277.000000	-1.212447 
277.500000	-1.395766 
278.000000	-1.372512 
278.500000	-1.250465 
279.000000	-1.072655 
279.500000	-1.035302 
280.000000	-1.085769 
280.500000	-1.368374 
281.000000	-1.594544 
281.500000	-1.771504 
282.000000	-2.367630 
282.500000	-2.793597 
283.000000	-3.133629 
283.500000	-3.327231 
284.000000	-3.481604 
284.500000	-3.501272 
285.000000	-3.531016 
285.500000	-3.357576 
286.000000	-2.801780 
286.500000	-2.387099 
287.000000	-1.810709 
287.500000	-1.382546 
288.000000	-1.077428 
288.500000	-1.002558 
289.000000	-1.036002 
289.500000	-1.511904 
290.000000	-1.961704 
290.500000	-2.031210 
291.000000	-2.111864 
291.500000	-2.032598 
292.000000	-1.578469 
292.500000	-0.959819 
293.000000	-0.396267 
293.500000	0.149160  
294.000000	0.253259  
294.500000	0.186132  
295.000000	0.205888  
295.500000	0.084946  
296.000000	-0.186277 
296.500000	-0.233386 
297.000000	-0.102083 
297.500000	0.073561  
298.000000	0.185089  
298.500000	0.286855  
299.000000	0.444298  
299.500000	0.686421  
300.000000	1.022710  
300.500000	1.227935  
301.000000	1.648461  
301.500000	2.011447  
302.000000	2.478408  
302.500000	2.649403  
303.000000	2.618253  
303.500000	2.317588  
304.000000	1.663392  
304.500000	0.997716  
305.000000	0.345599  
305.500000	-0.247235 
306.000000	-1.021665 
306.500000	-1.343495 
307.000000	-1.324787 
307.500000	-0.808325 
308.000000	0.122076  
308.500000	1.129289  
309.000000	2.268690  
309.500000	3.623080  
310.000000	4.755184  
310.500000	5.377649  
311.000000	5.777698  
311.500000	6.018272  
312.000000	6.001404  
312.500000	6.317121  
313.000000	6.441804  
313.500000	6.431759  
314.000000	6.791082  
314.500000	7.056223  
315.000000	7.069672  
315.500000	7.001780  
316.000000	6.760968  
316.500000	6.078490  
317.000000	5.961435  
317.500000	5.791754  
318.000000	5.562252  
318.500000	5.719549  
319.000000	6.051551  
319.500000	6.296898  
320.000000	6.593803  
320.500000	6.802068  
321.000000	6.580063  
321.500000	6.680752  
322.000000	6.579064  
322.500000	6.289848  
323.000000	5.969913  
323.500000	5.841670  
324.000000	5.715325  
324.500000	5.849032  
325.000000	6.052930  
325.500000	6.084943  
326.000000	6.269707  
326.500000	6.503419  
327.000000	6.625976  
327.500000	6.476803  
328.000000	6.315884  
328.500000	6.028883  
329.000000	5.900806  
329.500000	5.904676  
330.000000	5.815989  
330.500000	5.720784  
331.000000	5.784200  
331.500000	5.814218  
332.000000	5.628816  
332.500000	5.354798  
333.000000	4.873204  
333.500000	4.464440  
334.000000	4.304782  
334.500000	4.274569  
335.000000	4.409501  
335.500000	4.739505  
336.000000	5.071939  
336.500000	5.388102  
337.000000	5.559181  
337.500000	5.422668  
338.000000	5.202818  
338.500000	4.930288  
339.000000	4.699425  
339.500000	4.647524  
340.000000	4.700195  
340.500000	4.777110  
341.000000	4.976489  
341.500000	5.101168  
342.000000	5.051099  
342.500000	4.940395  
343.000000	4.824187  
343.500000	4.784276  
344.000000	4.984524  
344.500000	5.284058  
345.000000	5.556603  
345.500000	5.854867  
346.000000	5.935158  
346.500000	5.856409  
347.000000	5.594987  
347.500000	5.157626  
348.000000	4.730170  
348.500000	4.534083  
349.000000	4.565919  
349.500000	4.806244  
350.000000	5.234835  
350.500000	5.659302  
351.000000	6.070464  
351.500000	6.271183  
352.000000	6.258354  
352.500000	6.025205  
353.000000	5.748998  
353.500000	5.522441  
354.000000	5.469094  
354.500000	5.637233  
355.000000	5.951924  
355.500000	6.329370  
356.000000	6.701514  
356.500000	7.049101  
357.000000	7.151436  
357.500000	7.110415  
358.000000	6.947185  
358.500000	6.795787  
359.000000	6.778984  
359.500000	6.855080  
360.000000	6.888250  
360.500000	6.830802  
361.000000	6.832280  
361.500000	6.629918  
362.000000	6.269287  
362.500000	5.846232  
363.000000	5.475123  
363.500000	5.241718  
364.000000	5.149078  
364.500000	5.148517  
365.000000	5.289573  
365.500000	5.611721  
366.000000	5.899751  
366.500000	6.137566  
367.000000	6.319541  
367.500000	6.465226  
368.000000	6.554371  
368.500000	6.535063  
369.000000	6.401183  
369.500000	6.244511  
370.000000	6.202830  
370.500000	6.158653  
371.000000	6.183419  
371.500000	6.231165  
372.000000	6.306514  
372.500000	6.428139  
373.000000	6.475002  
373.500000	6.369236  
374.000000	6.141698  
374.500000	5.940647  
375.000000	5.632938  
375.500000	5.398297  
376.000000	5.257874  
376.500000	5.150596  
377.000000	5.186399  
377.500000	5.275453  
378.000000	5.382437  
378.500000	5.438773  
379.000000	5.567022  
379.500000	5.573693  
380.000000	5.535341  
380.500000	5.493434  
381.000000	5.411485  
381.500000	5.340959  
382.000000	5.283537  
382.500000	5.233320  
383.000000	5.156030  
383.500000	5.153451  
384.000000	5.117693  
384.500000	5.104112  
385.000000	5.087788  
385.500000	5.058366  
386.000000	4.998531  
386.500000	4.897437  
387.000000	4.782164  
387.500000	4.614168  
388.000000	4.475415  
388.500000	4.312303  
389.000000	4.242124  
389.500000	4.205806  
390.000000	4.206145  
390.500000	4.251726  
391.000000	4.281687  
391.500000	4.318820  
392.000000	4.309629  
392.500000	4.265045  
393.000000	4.169740  
393.500000	4.102644  
394.000000	4.041073  
394.500000	3.982685  
395.000000	4.017576  
395.500000	4.060440  
396.000000	4.099416  
396.500000	4.154135  
397.000000	4.191524  
397.500000	4.216411  
398.000000	4.226993  
398.500000	4.214922  
399.000000	4.188910  
399.500000	4.220777  
400.000000	4.236328  
400.500000	4.198339  
401.000000	4.135626  
401.500000	4.030138  
402.000000	3.903588  
402.500000	3.723869  
403.000000	3.522834  
403.500000	3.337816  
404.000000	3.246360  
404.500000	3.193894  
405.000000	3.171905  
405.500000	3.179977  
406.000000	3.232335  
406.500000	3.301184  
407.000000	3.373311  
407.500000	3.440008  
408.000000	3.472465  
408.500000	3.485334  
409.000000	3.444703  
409.500000	3.390731  
410.000000	3.305226  
410.500000	3.244467  
411.000000	3.184715  
411.500000	3.151692  
412.000000	3.177719  
412.500000	3.228143  
413.000000	3.295928  
413.500000	3.352655  
414.000000	3.393823  
414.500000	3.398291  
415.000000	3.412717  
415.500000	3.384645  
416.000000	3.330551  
416.500000	3.282944  
417.000000	3.221167  
417.500000	3.129827  
418.000000	3.028166  
418.500000	2.918278  
419.000000	2.787855  
419.500000	2.695314  
420.000000	2.611969  
420.500000	2.581391  
421.000000	2.563781  
421.500000	2.558454  
422.000000	2.537806  
422.500000	2.510805  
423.000000	2.463383  
423.500000	2.381308  
424.000000	2.302446  
424.500000	2.205732  
425.000000	2.146797  
425.500000	2.103722  
426.000000	2.066868  
426.500000	2.056346  
427.000000	2.079185  
427.500000	2.116408  
428.000000	2.152807  
428.500000	2.189289  
429.000000	2.227325  
429.500000	2.281902  
430.000000	2.329295  
430.500000	2.341476  
431.000000	2.341609  
431.500000	2.347132  
432.000000	2.326322  
432.500000	2.282143  
433.000000	2.214702  
433.500000	2.156464  
434.000000	2.111921  
434.500000	2.075554  
435.000000	2.060388  
435.500000	2.075686  
436.000000	2.140797  
436.500000	2.213037  
437.000000	2.277087  
437.500000	2.309834  
438.000000	2.312226  
438.500000	2.297297  
439.000000	2.246414  
439.500000	2.180325  
440.000000	2.130895  
440.500000	2.124890  
441.000000	2.128181  
441.500000	2.141573  
442.000000	2.178664  
442.500000	2.207680  
443.000000	2.238673  
443.500000	2.249552  
444.000000	2.214826  
444.500000	2.192099  

