PE FL                   SPECTRUM    ASCII       PEDS        1.60        
  -1
PMDF51~1
23/10/12
12:33:04.00
23/10/12
12:33:04.00


444.500000
1









LS55
25.00
5.00
5.00
SCAN
1
20
100
500
0
500
0
2
0
1
7
ON
500 450 
1 0 0
#HDR
-1
-1
#GR
NM

0.00002384185791015625
0.0
250.000000
0.500000
390
8
18.784296
-4.538517
#DATA
250.000000	1.409000  
250.500000	3.181427  
251.000000	4.763555  
251.500000	5.405234  
252.000000	4.907886  
252.500000	3.676411  
253.000000	2.068777  
253.500000	0.535941  
254.000000	-0.817247 
254.500000	-1.942605 
255.000000	-2.664477 
255.500000	-2.716550 
256.000000	-2.850720 
256.500000	-3.282589 
257.000000	-3.696393 
257.500000	-3.950775 
258.000000	-4.159160 
258.500000	-4.359604 
259.000000	-4.375651 
259.500000	-4.191071 
260.000000	-3.763202 
260.500000	-3.559179 
261.000000	-3.561228 
261.500000	-3.905250 
262.000000	-4.121716 
262.500000	-4.246263 
263.000000	-4.227687 
263.500000	-4.154981 
264.000000	-4.052903 
264.500000	-3.627571 
265.000000	-3.137873 
265.500000	-2.695852 
266.000000	-2.599397 
266.500000	-2.468688 
267.000000	-2.361154 
267.500000	-2.294398 
268.000000	-2.511433 
268.500000	-3.023772 
269.000000	-3.328959 
269.500000	-3.330149 
270.000000	-3.095296 
270.500000	-3.033977 
271.000000	-2.744246 
271.500000	-2.396711 
272.000000	-2.011245 
272.500000	-1.728738 
273.000000	-1.747079 
273.500000	-1.857526 
274.000000	-1.735892 
274.500000	-1.545143 
275.000000	-1.539883 
275.500000	-1.379069 
276.000000	-1.185273 
276.500000	-1.224232 
277.000000	-1.335842 
277.500000	-1.685377 
278.000000	-1.982276 
278.500000	-1.927655 
279.000000	-1.551129 
279.500000	-1.333324 
280.000000	-1.049681 
280.500000	-0.739339 
281.000000	-0.787550 
281.500000	-1.045245 
282.000000	-1.823091 
282.500000	-2.644383 
283.000000	-3.352328 
283.500000	-3.900860 
284.000000	-4.373925 
284.500000	-4.538517 
285.000000	-4.311208 
285.500000	-3.821770 
286.000000	-3.229291 
286.500000	-2.812739 
287.000000	-2.328862 
287.500000	-2.015935 
288.000000	-2.089625 
288.500000	-2.479622 
289.000000	-2.759052 
289.500000	-2.939417 
290.000000	-2.992219 
290.500000	-3.005631 
291.000000	-2.682821 
291.500000	-1.959994 
292.000000	-1.133661 
292.500000	-0.725050 
293.000000	-0.738471 
293.500000	-1.036318 
294.000000	-1.358441 
294.500000	-1.834273 
295.000000	-2.256793 
295.500000	-2.381620 
296.000000	-2.020248 
296.500000	-0.976917 
297.000000	0.125834  
297.500000	1.268833  
298.000000	2.036558  
298.500000	2.650109  
299.000000	2.639538  
299.500000	2.462746  
300.000000	2.058125  
300.500000	1.401478  
301.000000	1.254880  
301.500000	1.279379  
302.000000	1.843491  
302.500000	2.565005  
303.000000	3.656310  
303.500000	4.660518  
304.000000	5.678890  
304.500000	6.597823  
305.000000	6.892379  
305.500000	7.184149  
306.000000	7.138585  
306.500000	7.059640  
307.000000	6.801370  
307.500000	6.602092  
308.000000	6.506972  
308.500000	6.515250  
309.000000	6.837540  
309.500000	7.117135  
310.000000	7.881392  
310.500000	8.842187  
311.000000	10.041061 
311.500000	11.209121 
312.000000	12.490838 
312.500000	13.737775 
313.000000	14.624367 
313.500000	15.360379 
314.000000	15.545622 
314.500000	15.689913 
315.000000	15.705075 
315.500000	15.718518 
316.000000	15.697524 
316.500000	15.959430 
317.000000	16.328589 
317.500000	16.624087 
318.000000	17.005191 
318.500000	17.213726 
319.000000	17.448219 
319.500000	17.570632 
320.000000	17.530465 
320.500000	17.338607 
321.000000	17.322573 
321.500000	17.485442 
322.000000	17.629147 
322.500000	17.865786 
323.000000	18.157722 
323.500000	18.526577 
324.000000	18.784296 
324.500000	18.505820 
325.000000	17.932984 
325.500000	17.244137 
326.000000	16.515748 
326.500000	15.756888 
327.000000	15.098182 
327.500000	14.582745 
328.000000	14.303386 
328.500000	14.310504 
329.000000	14.154405 
329.500000	13.830473 
330.000000	13.528641 
330.500000	13.295288 
331.000000	13.091773 
331.500000	12.995818 
332.000000	12.781586 
332.500000	12.554315 
333.000000	12.493990 
333.500000	12.371498 
334.000000	12.046703 
334.500000	11.641571 
335.000000	11.265402 
335.500000	10.982480 
336.000000	10.916366 
336.500000	10.847190 
337.000000	10.824563 
337.500000	10.867020 
338.000000	10.960597 
338.500000	10.904935 
339.000000	10.521960 
339.500000	9.900247  
340.000000	9.123430  
340.500000	8.398509  
341.000000	7.591115  
341.500000	6.838171  
342.000000	6.257492  
342.500000	5.866126  
343.000000	5.741991  
343.500000	5.728870  
344.000000	5.768718  
344.500000	5.813391  
345.000000	5.894463  
345.500000	5.876421  
346.000000	5.854608  
346.500000	5.793377  
347.000000	5.742030  
347.500000	5.813569  
348.000000	5.941077  
348.500000	6.036032  
349.000000	6.100170  
349.500000	6.184502  
350.000000	6.178187  
350.500000	6.107909  
351.000000	5.931392  
351.500000	5.712877  
352.000000	5.484192  
352.500000	5.324147  
353.000000	5.187278  
353.500000	5.145601  
354.000000	5.327958  
354.500000	5.519324  
355.000000	5.717586  
355.500000	5.898344  
356.000000	6.060810  
356.500000	6.164861  
357.000000	6.189647  
357.500000	6.205739  
358.000000	6.075003  
358.500000	6.078073  
359.000000	6.008688  
359.500000	5.950111  
360.000000	6.030912  
360.500000	6.195296  
361.000000	6.346865  
361.500000	6.494777  
362.000000	6.653176  
362.500000	6.717111  
363.000000	6.806635  
363.500000	6.742998  
364.000000	6.560122  
364.500000	6.419062  
365.000000	6.317091  
365.500000	6.215583  
366.000000	6.053147  
366.500000	5.841637  
367.000000	5.659086  
367.500000	5.482686  
368.000000	5.312377  
368.500000	5.226709  
369.000000	5.254474  
369.500000	5.404323  
370.000000	5.688209  
370.500000	6.067044  
371.000000	6.347708  
371.500000	6.597778  
372.000000	6.742448  
372.500000	6.690867  
373.000000	6.590306  
373.500000	6.411509  
374.000000	6.133388  
374.500000	5.944389  
375.000000	5.838609  
375.500000	5.751084  
376.000000	5.739145  
376.500000	5.810800  
377.000000	5.807998  
377.500000	5.861971  
378.000000	5.933625  
378.500000	5.903316  
379.000000	5.900468  
379.500000	5.919517  
380.000000	5.889196  
380.500000	5.835662  
381.000000	5.812983  
381.500000	5.792642  
382.000000	5.721174  
382.500000	5.652391  
383.000000	5.567742  
383.500000	5.571707  
384.000000	5.588220  
384.500000	5.648138  
385.000000	5.768662  
385.500000	5.893268  
386.000000	6.043533  
386.500000	6.073019  
387.000000	6.057559  
387.500000	5.993721  
388.000000	5.972939  
388.500000	5.914277  
389.000000	5.903199  
389.500000	5.962414  
390.000000	6.030210  
390.500000	6.143026  
391.000000	6.130719  
391.500000	6.065436  
392.000000	5.918276  
392.500000	5.732945  
393.000000	5.448335  
393.500000	5.270628  
394.000000	5.234856  
394.500000	5.236369  
395.000000	5.372811  
395.500000	5.530585  
396.000000	5.798759  
396.500000	6.039996  
397.000000	6.136998  
397.500000	6.072150  
398.000000	6.010529  
398.500000	5.978401  
399.000000	5.842690  
399.500000	5.747071  
400.000000	5.616251  
400.500000	5.605856  
401.000000	5.698200  
401.500000	5.773972  
402.000000	5.803345  
402.500000	5.831222  
403.000000	5.890951  
403.500000	5.870021  
404.000000	5.856196  
404.500000	5.811783  
405.000000	5.802813  
405.500000	5.842636  
406.000000	5.867085  
406.500000	5.921214  
407.000000	5.958764  
407.500000	5.959391  
408.000000	5.897085  
408.500000	5.814655  
409.000000	5.746326  
409.500000	5.644334  
410.000000	5.527686  
410.500000	5.433813  
411.000000	5.386598  
411.500000	5.392354  
412.000000	5.440945  
412.500000	5.425719  
413.000000	5.377752  
413.500000	5.388204  
414.000000	5.380701  
414.500000	5.338899  
415.000000	5.296013  
415.500000	5.233831  
416.000000	5.230859  
416.500000	5.301084  
417.000000	5.340869  
417.500000	5.358428  
418.000000	5.397189  
418.500000	5.404899  
419.000000	5.381283  
419.500000	5.307766  
420.000000	5.198891  
420.500000	5.096077  
421.000000	5.042812  
421.500000	4.988912  
422.000000	4.926275  
422.500000	4.870460  
423.000000	4.754734  
423.500000	4.627740  
424.000000	4.438616  
424.500000	4.240673  
425.000000	4.077003  
425.500000	3.968642  
426.000000	3.902825  
426.500000	3.888617  
427.000000	3.896696  
427.500000	3.900412  
428.000000	3.898851  
428.500000	3.856857  
429.000000	3.789218  
429.500000	3.735480  
430.000000	3.715562  
430.500000	3.737297  
431.000000	3.800652  
431.500000	3.862595  
432.000000	3.917106  
432.500000	3.957050  
433.000000	3.978244  
433.500000	3.953997  
434.000000	3.911634  
434.500000	3.828856  
435.000000	3.731487  
435.500000	3.642737  
436.000000	3.533610  
436.500000	3.409736  
437.000000	3.289567  
437.500000	3.195699  
438.000000	3.124580  
438.500000	3.099878  
439.000000	3.109882  
439.500000	3.141246  
440.000000	3.211557  
440.500000	3.294534  
441.000000	3.359982  
441.500000	3.396110  
442.000000	3.424107  
442.500000	3.462255  
443.000000	3.481498  
443.500000	3.510296  
444.000000	3.518956  
444.500000	3.549795  

