PE FL                   SPECTRUM    ASCII       PEDS        1.60        
  -1
PMDF81~1
23/10/12
12:35:06.00
23/10/12
12:35:06.00


444.500000
1









LS55
40.00
5.00
5.00
SCAN
1
20
100
500
0
500
0
2
0
1
7
ON
500 450 
1 0 0
#HDR
-1
-1
#GR
NM

0.00002384185791015625
0.0
250.000000
0.500000
390
8
27.372929
-4.677973
#DATA
250.000000	-3.139000 
250.500000	-3.239834 
251.000000	-3.207171 
251.500000	-3.717441 
252.000000	-4.051550 
252.500000	-4.147079 
253.000000	-4.089670 
253.500000	-3.979898 
254.000000	-3.719342 
254.500000	-3.354688 
255.000000	-2.830464 
255.500000	-2.231924 
256.000000	-2.291597 
256.500000	-2.469401 
257.000000	-2.638567 
257.500000	-2.739866 
258.000000	-2.770336 
258.500000	-3.072633 
259.000000	-3.390131 
259.500000	-3.810280 
260.000000	-3.822527 
260.500000	-3.808371 
261.000000	-3.668563 
261.500000	-3.416101 
262.000000	-2.895227 
262.500000	-2.163512 
263.000000	-1.673336 
263.500000	-1.298546 
264.000000	-1.574903 
264.500000	-1.979736 
265.000000	-2.451395 
265.500000	-2.964835 
266.000000	-3.583261 
266.500000	-4.217344 
267.000000	-4.583000 
267.500000	-4.665231 
268.000000	-4.407508 
268.500000	-4.547224 
269.000000	-4.677973 
269.500000	-4.448513 
270.000000	-3.853194 
270.500000	-3.132874 
271.000000	-2.334341 
271.500000	-1.420948 
272.000000	-0.744720 
272.500000	0.005125  
273.000000	0.436167  
273.500000	0.401726  
274.000000	0.340690  
274.500000	0.422504  
275.000000	0.336193  
275.500000	0.262898  
276.000000	0.340916  
276.500000	0.159812  
277.000000	0.142444  
277.500000	0.031476  
278.000000	-0.202625 
278.500000	-0.445785 
279.000000	-0.499047 
279.500000	-0.657004 
280.000000	-0.623477 
280.500000	-0.439529 
281.000000	-0.622076 
281.500000	-0.852705 
282.000000	-1.146260 
282.500000	-1.369680 
283.000000	-1.492767 
283.500000	-1.605349 
284.000000	-1.763854 
284.500000	-1.493395 
285.000000	-1.056347 
285.500000	-0.893681 
286.000000	-0.770922 
286.500000	-0.598750 
287.000000	-0.384677 
287.500000	-0.204723 
288.000000	-0.430590 
288.500000	-1.101018 
289.000000	-1.375736 
289.500000	-1.488063 
290.000000	-1.705572 
290.500000	-2.013361 
291.000000	-1.951029 
291.500000	-1.692702 
292.000000	-1.416489 
292.500000	-1.383435 
293.000000	-1.724083 
293.500000	-1.601310 
294.000000	-1.324968 
294.500000	-1.091912 
295.000000	-0.911076 
295.500000	-0.568167 
296.000000	0.365550  
296.500000	1.380168  
297.000000	1.726336  
297.500000	1.583525  
298.000000	1.640140  
298.500000	1.850769  
299.000000	2.207633  
299.500000	2.585359  
300.000000	2.895062  
300.500000	3.756067  
301.000000	5.109737  
301.500000	6.296551  
302.000000	7.341192  
302.500000	8.304741  
303.000000	9.416332  
303.500000	10.757139 
304.000000	12.436404 
304.500000	13.736154 
305.000000	15.174858 
305.500000	16.813235 
306.000000	18.289311 
306.500000	19.662421 
307.000000	20.508569 
307.500000	20.838781 
308.000000	20.870690 
308.500000	21.117202 
309.000000	21.191091 
309.500000	21.587724 
310.000000	21.840051 
310.500000	22.087682 
311.000000	22.687952 
311.500000	23.211350 
312.000000	23.345372 
312.500000	23.412434 
313.000000	23.588128 
313.500000	23.639744 
314.000000	24.112250 
314.500000	24.706643 
315.000000	25.068797 
315.500000	25.896538 
316.000000	26.728114 
316.500000	27.009922 
317.000000	27.372929 
317.500000	27.101708 
318.000000	26.522891 
318.500000	25.894167 
319.000000	25.411547 
319.500000	24.622912 
320.000000	24.329841 
320.500000	24.149097 
321.000000	23.734360 
321.500000	23.854944 
322.000000	23.605761 
322.500000	23.367268 
323.000000	22.761284 
323.500000	22.275862 
324.000000	21.718617 
324.500000	21.501782 
325.000000	21.188464 
325.500000	20.780951 
326.000000	20.608058 
326.500000	20.165971 
327.000000	19.728875 
327.500000	18.989723 
328.000000	18.016697 
328.500000	17.063695 
329.000000	16.359802 
329.500000	15.721187 
330.000000	15.359040 
330.500000	15.071523 
331.000000	14.776888 
331.500000	14.605848 
332.000000	14.534045 
332.500000	14.301371 
333.000000	13.922481 
333.500000	13.469991 
334.000000	13.003901 
334.500000	12.668945 
335.000000	12.313487 
335.500000	11.962503 
336.000000	11.614387 
336.500000	11.498074 
337.000000	11.435088 
337.500000	11.320328 
338.000000	11.154449 
338.500000	10.975108 
339.000000	10.879862 
339.500000	10.699437 
340.000000	10.540086 
340.500000	10.387737 
341.000000	10.379411 
341.500000	10.443193 
342.000000	10.391700 
342.500000	10.287774 
343.000000	10.194831 
343.500000	10.077748 
344.000000	9.819063  
344.500000	9.648714  
345.000000	9.425141  
345.500000	9.185639  
346.000000	9.045456  
346.500000	8.938467  
347.000000	8.963202  
347.500000	9.064619  
348.000000	9.236812  
348.500000	9.324475  
349.000000	9.522465  
349.500000	9.556046  
350.000000	9.455686  
350.500000	9.182809  
351.000000	8.877147  
351.500000	8.653699  
352.000000	8.512132  
352.500000	8.449039  
353.000000	8.437246  
353.500000	8.645235  
354.000000	8.789365  
354.500000	8.992314  
355.000000	8.991234  
355.500000	8.969780  
356.000000	8.969051  
356.500000	8.975870  
357.000000	9.003252  
357.500000	8.929456  
358.000000	8.894733  
358.500000	8.917893  
359.000000	9.114110  
359.500000	9.318198  
360.000000	9.703219  
360.500000	10.124346 
361.000000	10.523353 
361.500000	10.852844 
362.000000	10.901639 
362.500000	10.774703 
363.000000	10.579998 
363.500000	10.318638 
364.000000	10.108407 
364.500000	10.138764 
365.000000	10.211334 
365.500000	10.447422 
366.000000	10.774902 
366.500000	10.967047 
367.000000	11.016757 
367.500000	10.950153 
368.000000	10.754749 
368.500000	10.538286 
369.000000	10.525971 
369.500000	10.467730 
370.000000	10.592716 
370.500000	10.760179 
371.000000	10.915806 
371.500000	11.086598 
372.000000	11.203917 
372.500000	11.218359 
373.000000	11.164123 
373.500000	11.144902 
374.000000	11.039849 
374.500000	11.004167 
375.000000	11.018398 
375.500000	11.175707 
376.000000	11.457052 
376.500000	11.878315 
377.000000	12.271562 
377.500000	12.599793 
378.000000	12.851962 
378.500000	13.017718 
379.000000	13.002722 
379.500000	12.913161 
380.000000	12.780212 
380.500000	12.531167 
381.000000	12.361086 
381.500000	12.221354 
382.000000	12.186823 
382.500000	12.138136 
383.000000	12.090470 
383.500000	11.932465 
384.000000	11.845666 
384.500000	11.904414 
385.000000	11.843452 
385.500000	11.766719 
386.000000	11.753241 
386.500000	11.907680 
387.000000	12.140819 
387.500000	12.343767 
388.000000	12.431846 
388.500000	12.493428 
389.000000	12.684738 
389.500000	12.717405 
390.000000	12.589940 
390.500000	12.365053 
391.000000	12.186691 
391.500000	12.070802 
392.000000	11.939459 
392.500000	11.956629 
393.000000	11.915329 
393.500000	12.025787 
394.000000	12.152415 
394.500000	12.222994 
395.000000	12.230165 
395.500000	12.118176 
396.000000	11.905063 
396.500000	11.568313 
397.000000	11.359478 
397.500000	11.086265 
398.000000	10.917520 
398.500000	10.849316 
399.000000	10.816959 
399.500000	10.846790 
400.000000	10.887294 
400.500000	10.956549 
401.000000	10.975842 
401.500000	11.110492 
402.000000	11.226194 
402.500000	11.349580 
403.000000	11.446659 
403.500000	11.490669 
404.000000	11.433063 
404.500000	11.274023 
405.000000	11.058586 
405.500000	10.829152 
406.000000	10.645696 
406.500000	10.510445 
407.000000	10.471787 
407.500000	10.505495 
408.000000	10.611312 
408.500000	10.686145 
409.000000	10.684020 
409.500000	10.591596 
410.000000	10.417671 
410.500000	10.257836 
411.000000	10.064033 
411.500000	9.849589  
412.000000	9.648786  
412.500000	9.476573  
413.000000	9.343459  
413.500000	9.273986  
414.000000	9.248334  
414.500000	9.223514  
415.000000	9.261093  
415.500000	9.305121  
416.000000	9.342824  
416.500000	9.342982  
417.000000	9.265874  
417.500000	9.148805  
418.000000	9.021086  
418.500000	8.896250  
419.000000	8.719325  
419.500000	8.471540  
420.000000	8.199346  
420.500000	7.996018  
421.000000	7.792307  
421.500000	7.581552  
422.000000	7.392672  
422.500000	7.298123  
423.000000	7.297908  
423.500000	7.380621  
424.000000	7.447197  
424.500000	7.483627  
425.000000	7.495895  
425.500000	7.452454  
426.000000	7.362203  
426.500000	7.196614  
427.000000	7.017617  
427.500000	6.837605  
428.000000	6.677664  
428.500000	6.527032  
429.000000	6.429417  
429.500000	6.358555  
430.000000	6.302137  
430.500000	6.300626  
431.000000	6.296667  
431.500000	6.346025  
432.000000	6.370039  
432.500000	6.379430  
433.000000	6.361299  
433.500000	6.344806  
434.000000	6.335361  
434.500000	6.257009  
435.000000	6.188811  
435.500000	6.090002  
436.000000	6.027918  
436.500000	5.933066  
437.000000	5.851846  
437.500000	5.800478  
438.000000	5.732663  
438.500000	5.700285  
439.000000	5.643510  
439.500000	5.611097  
440.000000	5.539572  
440.500000	5.493584  
441.000000	5.424097  
441.500000	5.364608  
442.000000	5.347891  
442.500000	5.343647  
443.000000	5.378278  
443.500000	5.421861  
444.000000	5.512833  
444.500000	5.566039  

