PE FL                   SPECTRUM    ASCII       PEDS        1.60        
  -1
PMEF09~1
23/10/12
12:36:27.00
23/10/12
12:36:27.00


444.500000
1









LS55
50.00
5.00
5.00
SCAN
1
20
100
500
0
500
0
2
0
1
7
ON
500 450 
1 0 0
#HDR
-1
-1
#GR
NM

0.00002384185791015625
0.0
250.000000
0.500000
390
8
28.014161
-4.999999
#DATA
250.000000	-4.999999 
250.500000	-3.709887 
251.000000	-2.298651 
251.500000	-1.269951 
252.000000	-0.832197 
252.500000	-1.090866 
253.000000	-1.476566 
253.500000	-1.954501 
254.000000	-2.170935 
254.500000	-2.430401 
255.000000	-2.411516 
255.500000	-2.160196 
256.000000	-1.985816 
256.500000	-1.633147 
257.000000	-1.720790 
257.500000	-1.645175 
258.000000	-1.811975 
258.500000	-1.787073 
259.000000	-1.798334 
259.500000	-1.520216 
260.000000	-1.157446 
260.500000	-1.060194 
261.000000	-0.852180 
261.500000	-1.158330 
262.000000	-1.380804 
262.500000	-1.894797 
263.000000	-2.759820 
263.500000	-3.494977 
264.000000	-3.856372 
264.500000	-4.060684 
265.000000	-4.274522 
265.500000	-4.150002 
266.000000	-3.943217 
266.500000	-3.333795 
267.000000	-2.374003 
267.500000	-1.718082 
268.000000	-1.125001 
268.500000	-0.575102 
269.000000	-0.284371 
269.500000	-0.654406 
270.000000	-1.274342 
270.500000	-1.974452 
271.000000	-2.440971 
271.500000	-2.592741 
272.000000	-2.935704 
272.500000	-3.011235 
273.000000	-2.870846 
273.500000	-2.544259 
274.000000	-2.817158 
274.500000	-3.058053 
275.000000	-3.337974 
275.500000	-3.608642 
276.000000	-3.714343 
276.500000	-3.727374 
277.000000	-3.316192 
277.500000	-2.676622 
278.000000	-1.805184 
278.500000	-1.473777 
279.000000	-1.235882 
279.500000	-1.193344 
280.000000	-1.327134 
280.500000	-1.608319 
281.000000	-2.172575 
281.500000	-2.590926 
282.000000	-3.006339 
282.500000	-3.126581 
283.000000	-3.224831 
283.500000	-3.192532 
284.000000	-3.306098 
284.500000	-3.237947 
285.000000	-3.132779 
285.500000	-3.059579 
286.000000	-2.853206 
286.500000	-2.944202 
287.000000	-3.052014 
287.500000	-2.963937 
288.000000	-2.841174 
288.500000	-3.104528 
289.000000	-3.065647 
289.500000	-2.977252 
290.000000	-2.454930 
290.500000	-1.554687 
291.000000	-0.815507 
291.500000	-0.199845 
292.000000	0.492481  
292.500000	1.142861  
293.000000	1.636663  
293.500000	2.049143  
294.000000	2.091228  
294.500000	2.293136  
295.000000	2.878655  
295.500000	3.370325  
296.000000	3.724232  
296.500000	3.956703  
297.000000	4.411721  
297.500000	5.140738  
298.000000	5.930362  
298.500000	6.492031  
299.000000	6.953855  
299.500000	7.813668  
300.000000	8.882357  
300.500000	10.196702 
301.000000	11.514264 
301.500000	13.113654 
302.000000	15.177301 
302.500000	17.356091 
303.000000	19.432420 
303.500000	20.944299 
304.000000	22.165009 
304.500000	22.874972 
305.000000	23.221576 
305.500000	23.165368 
306.000000	22.934393 
306.500000	22.713904 
307.000000	22.666554 
307.500000	22.767558 
308.000000	22.942174 
308.500000	23.320430 
309.000000	23.879061 
309.500000	24.318649 
310.000000	25.045081 
310.500000	25.842342 
311.000000	26.763867 
311.500000	27.584014 
312.000000	27.820718 
312.500000	27.947022 
313.000000	27.978989 
313.500000	28.014161 
314.000000	27.610716 
314.500000	27.330068 
315.000000	27.038958 
315.500000	27.093147 
316.000000	27.169003 
316.500000	26.614859 
317.000000	26.090381 
317.500000	25.761910 
318.000000	25.611247 
318.500000	25.172924 
319.000000	24.903280 
319.500000	24.538988 
320.000000	24.289472 
320.500000	24.129348 
321.000000	23.553625 
321.500000	22.944958 
322.000000	22.415472 
322.500000	21.873815 
323.000000	21.171481 
323.500000	20.805957 
324.000000	20.547282 
324.500000	20.210013 
325.000000	19.797073 
325.500000	19.293719 
326.000000	18.804322 
326.500000	18.112128 
327.000000	17.494566 
327.500000	16.810348 
328.000000	16.385692 
328.500000	16.228135 
329.000000	16.110609 
329.500000	15.923639 
330.000000	15.754019 
330.500000	15.758262 
331.000000	15.436111 
331.500000	15.076931 
332.000000	14.502161 
332.500000	14.028916 
333.000000	13.554347 
333.500000	13.217969 
334.000000	12.967898 
334.500000	12.810074 
335.000000	12.737367 
335.500000	12.474884 
336.000000	12.143449 
336.500000	11.753591 
337.000000	11.509843 
337.500000	11.320559 
338.000000	11.310193 
338.500000	11.374409 
339.000000	11.534123 
339.500000	11.720612 
340.000000	11.928154 
340.500000	11.993582 
341.000000	11.954623 
341.500000	11.913249 
342.000000	11.858347 
342.500000	11.859029 
343.000000	11.883253 
343.500000	11.898377 
344.000000	11.879783 
344.500000	11.914486 
345.000000	11.872286 
345.500000	11.708771 
346.000000	11.425136 
346.500000	11.081115 
347.000000	10.811574 
347.500000	10.578317 
348.000000	10.374994 
348.500000	10.273054 
349.000000	10.370181 
349.500000	10.564775 
350.000000	10.857233 
350.500000	11.161521 
351.000000	11.416812 
351.500000	11.600653 
352.000000	11.630297 
352.500000	11.838576 
353.000000	12.101605 
353.500000	12.318600 
354.000000	12.406459 
354.500000	12.564412 
355.000000	12.799942 
355.500000	12.968035 
356.000000	13.005993 
356.500000	12.800123 
357.000000	12.866318 
357.500000	13.145883 
358.000000	13.560955 
358.500000	13.899952 
359.000000	14.243149 
359.500000	14.583109 
360.000000	14.927417 
360.500000	15.198643 
361.000000	15.217653 
361.500000	15.327875 
362.000000	15.407279 
362.500000	15.484623 
363.000000	15.606749 
363.500000	15.739539 
364.000000	15.727315 
364.500000	15.638138 
365.000000	15.634955 
365.500000	15.623059 
366.000000	15.805874 
366.500000	15.865630 
367.000000	15.939902 
367.500000	16.175485 
368.000000	16.501000 
368.500000	16.687795 
369.000000	16.689070 
369.500000	16.759211 
370.000000	16.675315 
370.500000	16.646522 
371.000000	16.468774 
371.500000	16.208846 
372.000000	16.072352 
372.500000	15.968430 
373.000000	15.969601 
373.500000	16.063346 
374.000000	16.382375 
374.500000	16.792337 
375.000000	17.205544 
375.500000	17.492918 
376.000000	17.659768 
376.500000	17.810916 
377.000000	17.814373 
377.500000	17.706862 
378.000000	17.546258 
378.500000	17.361861 
379.000000	17.320525 
379.500000	17.283026 
380.000000	17.215192 
380.500000	17.149199 
381.000000	17.182168 
381.500000	17.274870 
382.000000	17.389100 
382.500000	17.613106 
383.000000	17.817073 
383.500000	18.109547 
384.000000	18.449275 
384.500000	18.684304 
385.000000	18.713101 
385.500000	18.590585 
386.000000	18.349043 
386.500000	18.023191 
387.000000	17.779187 
387.500000	17.573989 
388.000000	17.428947 
388.500000	17.468496 
389.000000	17.620715 
389.500000	17.734941 
390.000000	17.762615 
390.500000	17.646680 
391.000000	17.297709 
391.500000	16.927108 
392.000000	16.542515 
392.500000	16.094200 
393.000000	15.731720 
393.500000	15.531396 
394.000000	15.456326 
394.500000	15.494433 
395.000000	15.583309 
395.500000	15.580142 
396.000000	15.573076 
396.500000	15.580433 
397.000000	15.436220 
397.500000	15.197450 
398.000000	14.891192 
398.500000	14.497963 
399.000000	14.186370 
399.500000	14.000573 
400.000000	13.894734 
400.500000	13.830453 
401.000000	13.891767 
401.500000	13.982265 
402.000000	14.034352 
402.500000	14.068811 
403.000000	13.905820 
403.500000	13.701857 
404.000000	13.495204 
404.500000	13.351176 
405.000000	13.189256 
405.500000	13.083187 
406.000000	13.087010 
406.500000	13.104392 
407.000000	13.150822 
407.500000	13.091311 
408.000000	13.052752 
408.500000	13.011072 
409.000000	13.024505 
409.500000	12.985287 
410.000000	12.968070 
410.500000	13.016037 
411.000000	13.084071 
411.500000	13.148453 
412.000000	13.146739 
412.500000	13.120933 
413.000000	13.069986 
413.500000	12.977144 
414.000000	12.757031 
414.500000	12.534335 
415.000000	12.270271 
415.500000	12.022849 
416.000000	11.823045 
416.500000	11.638657 
417.000000	11.472631 
417.500000	11.349220 
418.000000	11.288260 
418.500000	11.183621 
419.000000	11.104820 
419.500000	10.981835 
420.000000	10.789445 
420.500000	10.561131 
421.000000	10.307445 
421.500000	10.005391 
422.000000	9.676868  
422.500000	9.343429  
423.000000	9.043746  
423.500000	8.818297  
424.000000	8.699953  
424.500000	8.610314  
425.000000	8.588338  
425.500000	8.593741  
426.000000	8.642015  
426.500000	8.711824  
427.000000	8.735936  
427.500000	8.741538  
428.000000	8.694456  
428.500000	8.662300  
429.000000	8.579021  
429.500000	8.462175  
430.000000	8.308472  
430.500000	8.173958  
431.000000	8.067654  
431.500000	7.934100  
432.000000	7.799112  
432.500000	7.682268  
433.000000	7.637818  
433.500000	7.622203  
434.000000	7.570832  
434.500000	7.491467  
435.000000	7.459855  
435.500000	7.452039  
436.000000	7.434117  
436.500000	7.403741  
437.000000	7.351513  
437.500000	7.309907  
438.000000	7.298147  
438.500000	7.193933  
439.000000	7.010893  
439.500000	6.865617  
440.000000	6.744564  
440.500000	6.603207  
441.000000	6.487839  
441.500000	6.369885  
442.000000	6.304208  
442.500000	6.329725  
443.000000	6.355979  
443.500000	6.335166  
444.000000	6.335605  
444.500000	6.335410  

