PE FL                   SPECTRUM    ASCII       PEDS        1.60        
  -1
PMDF11~1
23/10/12
12:30:23.00
23/10/12
12:30:23.00


444.500000
1









LS55
5.00
5.00
5.00
SCAN
1
20
100
500
0
500
0
2
0
1
7
ON
500 450 
1 0 0
#HDR
-1
-1
#GR
NM

0.00002384185791015625
0.0
250.000000
0.500000
390
8
57.046855
-5.169290
#DATA
250.000000	-5.000000 
250.500000	-3.499919 
251.000000	-2.468367 
251.500000	-1.789439 
252.000000	-1.338277 
252.500000	-1.050335 
253.000000	-1.231354 
253.500000	-2.022034 
254.000000	-2.984103 
254.500000	-3.734338 
255.000000	-4.141576 
255.500000	-4.458457 
256.000000	-4.442515 
256.500000	-4.313133 
257.000000	-4.001168 
257.500000	-3.514557 
258.000000	-3.403113 
258.500000	-3.440958 
259.000000	-3.534551 
259.500000	-3.519355 
260.000000	-3.500178 
260.500000	-3.407708 
261.000000	-3.253204 
261.500000	-3.220232 
262.000000	-3.198663 
262.500000	-3.306933 
263.000000	-3.599298 
263.500000	-3.997759 
264.000000	-4.402248 
264.500000	-4.819931 
265.000000	-5.031461 
265.500000	-5.169290 
266.000000	-5.075299 
266.500000	-4.752822 
267.000000	-4.342880 
267.500000	-4.000639 
268.000000	-3.644363 
268.500000	-3.355540 
269.000000	-3.105149 
269.500000	-2.795255 
270.000000	-2.869587 
270.500000	-2.871708 
271.000000	-2.936413 
271.500000	-2.872307 
272.000000	-2.941103 
272.500000	-2.977571 
273.000000	-2.994897 
273.500000	-2.885567 
274.000000	-2.666184 
274.500000	-2.633885 
275.000000	-2.546576 
275.500000	-2.642968 
276.000000	-2.564377 
276.500000	-2.870134 
277.000000	-2.985143 
277.500000	-2.955277 
278.000000	-2.697618 
278.500000	-2.419960 
279.000000	-2.100322 
279.500000	-1.854028 
280.000000	-1.839832 
280.500000	-1.832157 
281.000000	-2.309390 
281.500000	-2.798213 
282.000000	-3.051452 
282.500000	-3.051954 
283.000000	-2.992320 
283.500000	-2.779789 
284.000000	-2.596954 
284.500000	-2.565653 
285.000000	-2.592384 
285.500000	-2.795167 
286.000000	-3.060714 
286.500000	-3.251827 
287.000000	-3.408190 
287.500000	-3.448141 
288.000000	-3.375498 
288.500000	-3.149037 
289.000000	-3.235432 
289.500000	-3.257775 
290.000000	-2.995448 
290.500000	-2.661587 
291.000000	-2.332575 
291.500000	-2.009832 
292.000000	-1.866652 
292.500000	-1.792052 
293.000000	-1.576457 
293.500000	-1.977097 
294.000000	-2.412855 
294.500000	-2.602553 
295.000000	-2.666890 
295.500000	-2.797799 
296.000000	-2.476688 
296.500000	-2.079473 
297.000000	-1.503852 
297.500000	-0.437780 
298.000000	0.315643  
298.500000	0.858243  
299.000000	1.279506  
299.500000	1.507719  
300.000000	1.014671  
300.500000	0.567862  
301.000000	-0.194273 
301.500000	-1.220917 
302.000000	-1.937012 
302.500000	-2.589496 
303.000000	-2.983250 
303.500000	-3.064956 
304.000000	-2.637713 
304.500000	-2.331203 
305.000000	-1.500290 
305.500000	-0.492928 
306.000000	0.392777  
306.500000	1.433137  
307.000000	2.075677  
307.500000	2.766689  
308.000000	3.069833  
308.500000	3.259577  
309.000000	3.044808  
309.500000	2.863362  
310.000000	2.627507  
310.500000	2.462140  
311.000000	2.415651  
311.500000	2.122039  
312.000000	2.092630  
312.500000	1.926083  
313.000000	1.811148  
313.500000	1.698583  
314.000000	1.742968  
314.500000	1.767360  
315.000000	1.931503  
315.500000	2.095964  
316.000000	2.238943  
316.500000	2.611866  
317.000000	2.980720  
317.500000	3.192299  
318.000000	3.462134  
318.500000	3.946383  
319.000000	4.420542  
319.500000	5.053585  
320.000000	5.575848  
320.500000	6.155250  
321.000000	6.617750  
321.500000	7.062772  
322.000000	7.175533  
322.500000	7.047102  
323.000000	6.992704  
323.500000	6.973353  
324.000000	7.055307  
324.500000	7.235999  
325.000000	7.604232  
325.500000	7.923656  
326.000000	8.499736  
326.500000	9.007276  
327.000000	9.338256  
327.500000	9.576484  
328.000000	9.815346  
328.500000	10.116210 
329.000000	10.380599 
329.500000	10.439045 
330.000000	10.414544 
330.500000	10.531264 
331.000000	10.600849 
331.500000	10.639676 
332.000000	10.530196 
332.500000	10.529661 
333.000000	10.804733 
333.500000	11.246846 
334.000000	11.459447 
334.500000	11.777405 
335.000000	12.268389 
335.500000	12.661093 
336.000000	12.953217 
336.500000	13.036911 
337.000000	12.858686 
337.500000	12.832187 
338.000000	12.800338 
338.500000	12.547009 
339.000000	12.356494 
339.500000	12.403728 
340.000000	12.444728 
340.500000	12.384590 
341.000000	12.295943 
341.500000	12.066626 
342.000000	12.082682 
342.500000	11.991372 
343.000000	11.856866 
343.500000	11.793500 
344.000000	12.042110 
344.500000	12.458727 
345.000000	13.113585 
345.500000	13.881072 
346.000000	14.488129 
346.500000	15.235903 
347.000000	15.852439 
347.500000	16.362456 
348.000000	16.600006 
348.500000	16.545960 
349.000000	16.374367 
349.500000	16.468774 
350.000000	16.583066 
350.500000	16.721186 
351.000000	17.135883 
351.500000	17.835002 
352.000000	18.842135 
352.500000	20.076373 
353.000000	21.291409 
353.500000	22.370256 
354.000000	23.736896 
354.500000	25.118156 
355.000000	26.382561 
355.500000	27.680453 
356.000000	29.014489 
356.500000	30.403031 
357.000000	31.625297 
357.500000	32.600019 
358.000000	33.420099 
358.500000	34.415672 
359.000000	35.301543 
359.500000	35.828720 
360.000000	36.368494 
360.500000	37.143628 
361.000000	38.270338 
361.500000	39.446386 
362.000000	40.667192 
362.500000	41.905498 
363.000000	43.051075 
363.500000	43.817044 
364.000000	43.992133 
364.500000	43.639009 
365.000000	42.811725 
365.500000	41.871903 
366.000000	40.956868 
366.500000	40.029902 
367.000000	39.436229 
367.500000	39.138119 
368.000000	38.769132 
368.500000	38.418823 
369.000000	38.090570 
369.500000	37.705528 
370.000000	37.428655 
370.500000	37.282680 
371.000000	37.222893 
371.500000	37.481911 
372.000000	38.315679 
372.500000	38.990835 
373.000000	39.664809 
373.500000	40.250868 
374.000000	40.622327 
374.500000	41.088793 
375.000000	41.535956 
375.500000	41.832474 
376.000000	41.987174 
376.500000	42.587929 
377.000000	43.113540 
377.500000	43.892365 
378.000000	44.580943 
378.500000	44.808379 
379.000000	44.967790 
379.500000	44.842368 
380.000000	44.235383 
380.500000	43.384341 
381.000000	42.679205 
381.500000	41.640538 
382.000000	40.948769 
382.500000	40.746362 
383.000000	40.504787 
383.500000	40.342561 
384.000000	40.183023 
384.500000	39.735082 
385.000000	39.256178 
385.500000	38.861528 
386.000000	38.271785 
386.500000	37.646555 
387.000000	37.115037 
387.500000	36.386638 
388.000000	35.568500 
388.500000	34.682938 
389.000000	33.429848 
389.500000	31.827756 
390.000000	29.961262 
390.500000	28.118630 
391.000000	26.227919 
391.500000	24.339912 
392.000000	22.444167 
392.500000	20.847269 
393.000000	19.716258 
393.500000	19.005195 
394.000000	18.523226 
394.500000	18.025619 
395.000000	17.935572 
395.500000	18.122360 
396.000000	18.300792 
396.500000	18.292243 
397.000000	18.229512 
397.500000	18.199455 
398.000000	18.142466 
398.500000	17.987804 
399.000000	17.467207 
399.500000	16.759969 
400.000000	16.058453 
400.500000	15.323051 
401.000000	14.598878 
401.500000	13.984983 
402.000000	13.607600 
402.500000	13.455365 
403.000000	13.460949 
403.500000	13.415947 
404.000000	13.225807 
404.500000	13.047688 
405.000000	12.769134 
405.500000	12.483098 
406.000000	12.093440 
406.500000	11.714290 
407.000000	11.356906 
407.500000	11.079363 
408.000000	10.898718 
408.500000	10.657390 
409.000000	10.492430 
409.500000	10.372570 
410.000000	10.421614 
410.500000	10.469428 
411.000000	10.511419 
411.500000	10.547021 
412.000000	10.594919 
412.500000	10.648677 
413.000000	10.679057 
413.500000	10.651148 
414.000000	10.597532 
414.500000	10.694868 
415.000000	10.847433 
415.500000	11.001933 
416.000000	11.200453 
416.500000	11.440376 
417.000000	11.736964 
417.500000	12.091375 
418.000000	12.489533 
418.500000	12.924374 
419.000000	13.354383 
419.500000	13.861255 
420.000000	14.384782 
420.500000	14.982099 
421.000000	15.474903 
421.500000	15.823715 
422.000000	16.086928 
422.500000	16.293828 
423.000000	16.517551 
423.500000	16.590242 
424.000000	16.679657 
424.500000	16.850875 
425.000000	17.288697 
425.500000	17.840841 
426.000000	18.392645 
426.500000	18.856482 
427.000000	19.314405 
427.500000	19.872904 
428.000000	20.259958 
428.500000	20.557837 
429.000000	20.866969 
429.500000	21.282733 
430.000000	21.955535 
430.500000	22.904888 
431.000000	24.078801 
431.500000	25.499197 
432.000000	27.283248 
432.500000	29.429037 
433.000000	31.801025 
433.500000	34.277070 
434.000000	36.579307 
434.500000	38.745058 
435.000000	40.623853 
435.500000	42.218935 
436.000000	43.425287 
436.500000	44.207640 
437.000000	44.629882 
437.500000	44.885243 
438.000000	45.036560 
438.500000	45.096934 
439.000000	45.182281 
439.500000	45.301463 
440.000000	45.876025 
440.500000	46.746022 
441.000000	47.887859 
441.500000	49.233843 
442.000000	50.800437 
442.500000	52.395943 
443.000000	54.004491 
443.500000	55.413395 
444.000000	56.342012 
444.500000	57.046855 

