PE FL                   SPECTRUM    ASCII       PEDS        1.60        
  -1
PPA043~1
23/10/10
15:28:45.00
23/10/10
15:28:45.00


444.500000
1









LS55
50.00
5.00
5.00
SCAN
1
20
100
100
0
500
0
2
0
1
7
ON
500 450 
1 0 0
#HDR
-1
-1
#GR
NM

0.00002384185791015625
0.0
250.000000
0.500000
390
8
7.080848
-3.480272
#DATA
250.000000	-1.432000 
250.500000	-0.607688 
251.000000	0.122043  
251.500000	1.074464  
252.000000	1.872967  
252.500000	2.562803  
253.000000	2.349750  
253.500000	1.946544  
254.000000	1.046421  
254.500000	0.024567  
255.000000	-0.837826 
255.500000	-1.654487 
256.000000	-2.028703 
256.500000	-2.089846 
257.000000	-1.619108 
257.500000	-1.572685 
258.000000	-1.547275 
258.500000	-1.756353 
259.000000	-1.978310 
259.500000	-1.977741 
260.000000	-1.923684 
260.500000	-1.737609 
261.000000	-1.622086 
261.500000	-1.339123 
262.000000	-1.269540 
262.500000	-1.344156 
263.000000	-1.603435 
263.500000	-2.297729 
264.000000	-2.947211 
264.500000	-3.426921 
265.000000	-3.480272 
265.500000	-3.399008 
266.000000	-3.339682 
266.500000	-2.932053 
267.000000	-2.413521 
267.500000	-1.812749 
268.000000	-1.795165 
268.500000	-2.149000 
269.000000	-2.514980 
269.500000	-2.560236 
270.000000	-2.148645 
270.500000	-1.570094 
271.000000	-0.692455 
271.500000	0.260819  
272.000000	1.059592  
272.500000	1.505763  
273.000000	1.218485  
273.500000	0.616271  
274.000000	-0.076179 
274.500000	-0.661281 
275.000000	-1.146340 
275.500000	-1.430394 
276.000000	-1.661577 
276.500000	-1.991772 
277.000000	-1.802975 
277.500000	-1.775492 
278.000000	-1.599265 
278.500000	-1.328492 
279.000000	-1.086671 
279.500000	-1.004979 
280.000000	-0.819038 
280.500000	-0.843789 
281.000000	-1.276544 
281.500000	-1.358309 
282.000000	-1.324308 
282.500000	-0.734310 
283.000000	0.241273  
283.500000	1.506327  
284.000000	2.494037  
284.500000	3.271232  
285.000000	3.324747  
285.500000	2.584706  
286.000000	1.505275  
286.500000	0.066460  
287.000000	-0.760131 
287.500000	-0.991265 
288.000000	-0.441735 
288.500000	0.311592  
289.000000	1.251168  
289.500000	1.995544  
290.000000	2.520993  
290.500000	2.679344  
291.000000	2.003024  
291.500000	1.406186  
292.000000	1.035919  
292.500000	0.993443  
293.000000	1.284517  
293.500000	1.750432  
294.000000	2.301073  
294.500000	3.031167  
295.000000	3.775835  
295.500000	3.960965  
296.000000	3.953757  
296.500000	4.199270  
297.000000	4.518668  
297.500000	4.958526  
298.000000	5.492101  
298.500000	5.904621  
299.000000	6.203710  
299.500000	6.618404  
300.000000	6.296936  
300.500000	5.743871  
301.000000	5.253121  
301.500000	4.659609  
302.000000	4.321710  
302.500000	4.344476  
303.000000	4.696324  
303.500000	5.027454  
304.000000	5.846704  
304.500000	6.293142  
305.000000	6.679805  
305.500000	6.944086  
306.000000	7.057738  
306.500000	7.080848  
307.000000	7.012214  
307.500000	6.938892  
308.000000	6.791391  
308.500000	6.843922  
309.000000	6.745222  
309.500000	6.486707  
310.000000	6.208326  
310.500000	5.933229  
311.000000	5.884534  
311.500000	5.773177  
312.000000	5.509795  
312.500000	5.461494  
313.000000	5.355079  
313.500000	5.519312  
314.000000	5.591231  
314.500000	5.717877  
315.000000	5.921002  
315.500000	6.267794  
316.000000	6.483531  
316.500000	6.301434  
317.000000	6.025618  
317.500000	5.526918  
318.000000	5.012134  
318.500000	4.273601  
319.000000	3.546842  
319.500000	2.973726  
320.000000	2.625397  
320.500000	2.344795  
321.000000	1.947245  
321.500000	1.634623  
322.000000	1.431928  
322.500000	1.411873  
323.000000	1.451551  
323.500000	1.482771  
324.000000	1.719743  
324.500000	2.257953  
325.000000	2.634919  
325.500000	2.828775  
326.000000	2.827036  
326.500000	2.584896  
327.000000	2.224523  
327.500000	1.892746  
328.000000	1.496775  
328.500000	1.121952  
329.000000	1.118669  
329.500000	1.256023  
330.000000	1.486363  
330.500000	1.854626  
331.000000	2.158801  
331.500000	2.326297  
332.000000	2.480007  
332.500000	2.584870  
333.000000	2.495759  
333.500000	2.413045  
334.000000	2.223060  
334.500000	2.031394  
335.000000	1.911498  
335.500000	1.830501  
336.000000	1.769224  
336.500000	1.769893  
337.000000	1.822379  
337.500000	1.811253  
338.000000	1.823876  
338.500000	1.826134  
339.000000	1.909002  
339.500000	2.006220  
340.000000	2.017586  
340.500000	2.024640  
341.000000	1.970232  
341.500000	1.791709  
342.000000	1.557888  
342.500000	1.409078  
343.000000	1.283139  
343.500000	1.383891  
344.000000	1.649804  
344.500000	1.903096  
345.000000	2.152570  
345.500000	2.395291  
346.000000	2.450446  
346.500000	2.451655  
347.000000	2.452513  
347.500000	2.487915  
348.000000	2.575054  
348.500000	2.734684  
349.000000	2.890089  
349.500000	3.063584  
350.000000	3.170860  
350.500000	3.070187  
351.000000	2.953256  
351.500000	2.755491  
352.000000	2.594390  
352.500000	2.476369  
353.000000	2.479119  
353.500000	2.566475  
354.000000	2.685064  
354.500000	2.818268  
355.000000	2.953006  
355.500000	3.095309  
356.000000	3.137311  
356.500000	3.118037  
357.000000	3.039399  
357.500000	3.076946  
358.000000	3.217581  
358.500000	3.343104  
359.000000	3.451283  
359.500000	3.569563  
360.000000	3.605793  
360.500000	3.599248  
361.000000	3.383343  
361.500000	2.960728  
362.000000	2.599430  
362.500000	2.409368  
363.000000	2.359648  
363.500000	2.437135  
364.000000	2.643783  
364.500000	2.788724  
365.000000	2.995552  
365.500000	3.209748  
366.000000	3.254978  
366.500000	3.241913  
367.000000	3.238367  
367.500000	3.382694  
368.000000	3.648313  
368.500000	3.978055  
369.000000	4.193404  
369.500000	4.302683  
370.000000	4.415102  
370.500000	4.398246  
371.000000	4.229904  
371.500000	3.998333  
372.000000	3.800581  
372.500000	3.620825  
373.000000	3.593075  
373.500000	3.621985  
374.000000	3.610131  
374.500000	3.701234  
375.000000	3.743164  
375.500000	3.711591  
376.000000	3.672188  
376.500000	3.549928  
377.000000	3.310879  
377.500000	3.084922  
378.000000	2.927701  
378.500000	2.795669  
379.000000	2.787369  
379.500000	2.850549  
380.000000	2.964445  
380.500000	3.209571  
381.000000	3.460567  
381.500000	3.626384  
382.000000	3.684712  
382.500000	3.681088  
383.000000	3.622722  
383.500000	3.562070  
384.000000	3.508286  
384.500000	3.469189  
385.000000	3.469382  
385.500000	3.505983  
386.000000	3.560466  
386.500000	3.512480  
387.000000	3.446976  
387.500000	3.349320  
388.000000	3.202121  
388.500000	3.042723  
389.000000	2.918464  
389.500000	2.792916  
390.000000	2.726597  
390.500000	2.744460  
391.000000	2.796882  
391.500000	2.871415  
392.000000	2.922278  
392.500000	3.000192  
393.000000	3.046950  
393.500000	3.124022  
394.000000	3.168160  
394.500000	3.180143  
395.000000	3.203816  
395.500000	3.212740  
396.000000	3.206883  
396.500000	3.133073  
397.000000	3.071391  
397.500000	2.972557  
398.000000	2.858260  
398.500000	2.762184  
399.000000	2.654026  
399.500000	2.585107  
400.000000	2.522028  
400.500000	2.500432  
401.000000	2.463936  
401.500000	2.448466  
402.000000	2.459353  
402.500000	2.463128  
403.000000	2.480201  
403.500000	2.468954  
404.000000	2.455298  
404.500000	2.401247  
405.000000	2.331914  
405.500000	2.230204  
406.000000	2.110433  
406.500000	2.013643  
407.000000	1.926315  
407.500000	1.877993  
408.000000	1.884417  
408.500000	1.915857  
409.000000	1.931087  
409.500000	1.961319  
410.000000	1.961383  
410.500000	1.922932  
411.000000	1.844927  
411.500000	1.754075  
412.000000	1.647862  
412.500000	1.566199  
413.000000	1.532060  
413.500000	1.496230  
414.000000	1.530803  
414.500000	1.560408  
415.000000	1.601270  
415.500000	1.668146  
416.000000	1.748818  
416.500000	1.778126  
417.000000	1.800250  
417.500000	1.820661  
418.000000	1.789655  
418.500000	1.758378  
419.000000	1.667175  
419.500000	1.521098  
420.000000	1.382766  
420.500000	1.288278  
421.000000	1.217139  
421.500000	1.193376  
422.000000	1.199900  
422.500000	1.222159  
423.000000	1.280969  
423.500000	1.311195  
424.000000	1.291809  
424.500000	1.254319  
425.000000	1.226442  
425.500000	1.191032  
426.000000	1.178949  
426.500000	1.175300  
427.000000	1.179846  
427.500000	1.204520  
428.000000	1.215114  
428.500000	1.224743  
429.000000	1.224557  
429.500000	1.243508  
430.000000	1.271742  
430.500000	1.310943  
431.000000	1.356965  
431.500000	1.389046  
432.000000	1.392349  
432.500000	1.343827  
433.000000	1.269192  
433.500000	1.177036  
434.000000	1.116522  
434.500000	1.083011  
435.000000	1.082899  
435.500000	1.119765  
436.000000	1.209095  
436.500000	1.292709  
437.000000	1.344589  
437.500000	1.364393  
438.000000	1.338389  
438.500000	1.285365  
439.000000	1.204288  
439.500000	1.126009  
440.000000	1.060891  
440.500000	1.046675  
441.000000	1.048631  
441.500000	1.048541  
442.000000	1.052994  
442.500000	1.051217  
443.000000	1.040233  
443.500000	1.024323  
444.000000	1.017203  
444.500000	1.008344  

