PE FL                   SPECTRUM    ASCII       PEDS        1.60        
  -1
PP90CB~1
23/10/10
15:27:24.00
23/10/10
15:27:24.00


444.500000
1









LS55
40.00
5.00
5.00
SCAN
1
20
100
100
0
500
0
2
0
1
7
ON
500 450 
1 0 0
#HDR
-1
-1
#GR
NM

0.00002384185791015625
0.0
250.000000
0.500000
390
8
6.792164
-5.000000
#DATA
250.000000	-5.000000 
250.500000	-4.307493 
251.000000	-3.172821 
251.500000	-1.966311 
252.000000	-0.817749 
252.500000	0.395666  
253.000000	1.345848  
253.500000	1.996041  
254.000000	2.192315  
254.500000	1.997235  
255.000000	1.231308  
255.500000	0.742265  
256.000000	0.401155  
256.500000	-0.060309 
257.000000	-0.409417 
257.500000	-0.793069 
258.000000	-1.018387 
258.500000	-1.478445 
259.000000	-2.264753 
259.500000	-3.270173 
260.000000	-3.861217 
260.500000	-4.043157 
261.000000	-4.190358 
261.500000	-3.959005 
262.000000	-3.749086 
262.500000	-3.088607 
263.000000	-2.217299 
263.500000	-1.617536 
264.000000	-1.201329 
264.500000	-0.673301 
265.000000	-0.284367 
265.500000	-0.225059 
266.000000	-0.247585 
266.500000	-0.941304 
267.000000	-1.758603 
267.500000	-2.302629 
268.000000	-2.855105 
268.500000	-3.299362 
269.000000	-3.372347 
269.500000	-3.167756 
270.000000	-2.878383 
270.500000	-2.340257 
271.000000	-2.387163 
271.500000	-2.666331 
272.000000	-3.243555 
272.500000	-3.780324 
273.000000	-4.191133 
273.500000	-4.129045 
274.000000	-3.741718 
274.500000	-3.007903 
275.000000	-1.985927 
275.500000	-1.187595 
276.000000	-0.470751 
276.500000	-0.521262 
277.000000	-0.994519 
277.500000	-1.734195 
278.000000	-2.479075 
278.500000	-3.223233 
279.000000	-3.695170 
279.500000	-3.737193 
280.000000	-3.791451 
280.500000	-3.439932 
281.000000	-3.027685 
281.500000	-2.376800 
282.000000	-1.609243 
282.500000	-0.779430 
283.000000	-0.231684 
283.500000	0.299366  
284.000000	0.869625  
284.500000	0.983784  
285.000000	0.579369  
285.500000	-0.201636 
286.000000	-0.919199 
286.500000	-1.249717 
287.000000	-1.311085 
287.500000	-1.371001 
288.000000	-1.123760 
288.500000	-0.103413 
289.000000	1.087097  
289.500000	1.957126  
290.000000	2.513880  
290.500000	2.554980  
291.000000	2.325489  
291.500000	1.919556  
292.000000	0.972100  
292.500000	-0.261616 
293.000000	-1.181636 
293.500000	-1.511411 
294.000000	-1.176212 
294.500000	-0.621076 
295.000000	0.180112  
295.500000	1.349265  
296.000000	2.630972  
296.500000	3.466619  
297.000000	3.709916  
297.500000	3.293355  
298.000000	2.440710  
298.500000	1.894312  
299.000000	1.238058  
299.500000	0.963683  
300.000000	1.131022  
300.500000	1.497515  
301.000000	2.010831  
301.500000	2.929801  
302.000000	3.677397  
302.500000	4.078304  
303.000000	4.643096  
303.500000	4.733149  
304.000000	4.715221  
304.500000	4.849002  
305.000000	4.806265  
305.500000	4.723337  
306.000000	5.017898  
306.500000	5.536619  
307.000000	6.043221  
307.500000	6.497493  
308.000000	6.705717  
308.500000	6.792164  
309.000000	6.698826  
309.500000	6.230484  
310.000000	5.368776  
310.500000	4.439983  
311.000000	3.620436  
311.500000	3.155817  
312.000000	3.104444  
312.500000	3.151038  
313.000000	3.523734  
313.500000	4.005323  
314.000000	4.504926  
314.500000	4.657171  
315.000000	4.526775  
315.500000	4.185759  
316.000000	3.929418  
316.500000	3.702861  
317.000000	2.977388  
317.500000	2.515374  
318.000000	2.446403  
318.500000	2.774436  
319.000000	3.123235  
319.500000	3.374359  
320.000000	3.492741  
320.500000	3.701820  
321.000000	4.038198  
321.500000	3.763073  
322.000000	3.322408  
322.500000	2.947251  
323.000000	2.580098  
323.500000	2.266462  
324.000000	1.861558  
324.500000	1.253713  
325.000000	0.882255  
325.500000	0.731180  
326.000000	0.598799  
326.500000	0.690905  
327.000000	1.093626  
327.500000	1.602003  
328.000000	2.274170  
328.500000	3.035461  
329.000000	3.548751  
329.500000	3.867285  
330.000000	3.888017  
330.500000	3.700815  
331.000000	3.469150  
331.500000	3.268556  
332.000000	2.994852  
332.500000	2.847162  
333.000000	2.892178  
333.500000	3.028435  
334.000000	3.197328  
334.500000	3.161188  
335.000000	3.037238  
335.500000	2.897514  
336.000000	2.703923  
336.500000	2.399395  
337.000000	2.125371  
337.500000	1.954719  
338.000000	1.968288  
338.500000	2.146964  
339.000000	2.258156  
339.500000	2.447410  
340.000000	2.705024  
340.500000	3.106369  
341.000000	3.296599  
341.500000	3.315117  
342.000000	3.196129  
342.500000	2.960384  
343.000000	2.801383  
343.500000	2.517586  
344.000000	2.260331  
344.500000	2.116818  
345.000000	2.342442  
345.500000	2.652039  
346.000000	2.983723  
346.500000	3.301233  
347.000000	3.537181  
347.500000	3.809403  
348.000000	3.909132  
348.500000	3.812328  
349.000000	3.590355  
349.500000	3.475831  
350.000000	3.405951  
350.500000	3.296903  
351.000000	3.131615  
351.500000	2.962214  
352.000000	2.975447  
352.500000	2.887553  
353.000000	2.740133  
353.500000	2.579184  
354.000000	2.397933  
354.500000	2.265538  
355.000000	2.135227  
355.500000	1.958063  
356.000000	1.819135  
356.500000	2.005025  
357.000000	2.150233  
357.500000	2.349985  
358.000000	2.609416  
358.500000	2.874708  
359.000000	3.155410  
359.500000	3.478819  
360.000000	3.583870  
360.500000	3.512572  
361.000000	3.575868  
361.500000	3.542629  
362.000000	3.549817  
362.500000	3.513536  
363.000000	3.509244  
363.500000	3.501194  
364.000000	3.656397  
364.500000	3.636974  
365.000000	3.420110  
365.500000	3.168828  
366.000000	2.887803  
366.500000	2.637968  
367.000000	2.321547  
367.500000	1.945097  
368.000000	1.654699  
368.500000	1.645039  
369.000000	1.699824  
369.500000	1.771711  
370.000000	1.899252  
370.500000	2.068050  
371.000000	2.290745  
371.500000	2.523200  
372.000000	2.646674  
372.500000	2.787348  
373.000000	2.811207  
373.500000	2.762819  
374.000000	2.644149  
374.500000	2.441823  
375.000000	2.237000  
375.500000	2.101722  
376.000000	2.087461  
376.500000	2.125849  
377.000000	2.333146  
377.500000	2.499386  
378.000000	2.656741  
378.500000	2.744282  
379.000000	2.666369  
379.500000	2.479148  
380.000000	2.262220  
380.500000	2.031636  
381.000000	1.800588  
381.500000	1.672860  
382.000000	1.616160  
382.500000	1.651784  
383.000000	1.749160  
383.500000	1.787590  
384.000000	1.778812  
384.500000	1.794250  
385.000000	1.854033  
385.500000	1.873262  
386.000000	1.843339  
386.500000	1.834780  
387.000000	1.870617  
387.500000	1.857967  
388.000000	1.807456  
388.500000	1.716189  
389.000000	1.623638  
389.500000	1.554896  
390.000000	1.458386  
390.500000	1.372816  
391.000000	1.328525  
391.500000	1.348406  
392.000000	1.340172  
392.500000	1.382160  
393.000000	1.425307  
393.500000	1.473584  
394.000000	1.528073  
394.500000	1.539717  
395.000000	1.588968  
395.500000	1.629787  
396.000000	1.687742  
396.500000	1.696033  
397.000000	1.723383  
397.500000	1.724006  
398.000000	1.708827  
398.500000	1.685940  
399.000000	1.609156  
399.500000	1.550042  
400.000000	1.518847  
400.500000	1.488790  
401.000000	1.471118  
401.500000	1.451967  
402.000000	1.446282  
402.500000	1.434747  
403.000000	1.428361  
403.500000	1.388854  
404.000000	1.344098  
404.500000	1.298731  
405.000000	1.259385  
405.500000	1.268350  
406.000000	1.276675  
406.500000	1.322515  
407.000000	1.406127  
407.500000	1.498160  
408.000000	1.592659  
408.500000	1.641045  
409.000000	1.628000  
409.500000	1.610614  
410.000000	1.563983  
410.500000	1.472579  
411.000000	1.406128  
411.500000	1.374137  
412.000000	1.343873  
412.500000	1.360613  
413.000000	1.393105  
413.500000	1.398718  
414.000000	1.429843  
414.500000	1.419559  
415.000000	1.394450  
415.500000	1.354687  
416.000000	1.310553  
416.500000	1.233413  
417.000000	1.207973  
417.500000	1.233947  
418.000000	1.282637  
418.500000	1.368494  
419.000000	1.441878  
419.500000	1.513532  
420.000000	1.581221  
420.500000	1.603140  
421.000000	1.535611  
421.500000	1.418013  
422.000000	1.307197  
422.500000	1.212179  
423.000000	1.132314  
423.500000	1.067463  
424.000000	1.028608  
424.500000	1.047173  
425.000000	1.090654  
425.500000	1.131108  
426.000000	1.165957  
426.500000	1.216872  
427.000000	1.243419  
427.500000	1.266774  
428.000000	1.287461  
428.500000	1.284243  
429.000000	1.282136  
429.500000	1.263702  
430.000000	1.223607  
430.500000	1.180112  
431.000000	1.153692  
431.500000	1.108489  
432.000000	1.070521  
432.500000	1.052128  
433.000000	1.052046  
433.500000	1.060663  
434.000000	1.081384  
434.500000	1.089512  
435.000000	1.096655  
435.500000	1.097395  
436.000000	1.078993  
436.500000	1.063225  
437.000000	1.049983  
437.500000	1.045392  
438.000000	1.039974  
438.500000	1.059976  
439.000000	1.090795  
439.500000	1.133159  
440.000000	1.154748  
440.500000	1.160373  
441.000000	1.154303  
441.500000	1.140290  
442.000000	1.117313  
442.500000	1.075870  
443.000000	1.031309  
443.500000	0.978401  
444.000000	0.944767  
444.500000	0.912373  

