PE FL                   SPECTRUM    ASCII       PEDS        1.60        
  -1
PP906B~1
23/10/10
15:23:22.00
23/10/10
15:23:22.00


444.500000
1









LS55
10.00
5.00
5.00
SCAN
1
20
100
100
0
500
0
2
0
1
7
ON
500 450 
1 0 0
#HDR
-1
-1
#GR
NM

0.00002384185791015625
0.0
250.000000
0.500000
390
8
4.215608
-3.886279
#DATA
250.000000	-3.561000 
250.500000	-2.925296 
251.000000	-2.240486 
251.500000	-1.549641 
252.000000	-0.956683 
252.500000	-0.679138 
253.000000	-0.624735 
253.500000	-0.767725 
254.000000	-1.015235 
254.500000	-1.499653 
255.000000	-2.208319 
255.500000	-2.938209 
256.000000	-3.490414 
256.500000	-3.703263 
257.000000	-3.786784 
257.500000	-3.886279 
258.000000	-3.877814 
258.500000	-3.618186 
259.000000	-3.212920 
259.500000	-2.709039 
260.000000	-2.208708 
260.500000	-1.810953 
261.000000	-1.380117 
261.500000	-0.643566 
262.000000	0.066216  
262.500000	0.656765  
263.000000	0.785947  
263.500000	0.839150  
264.000000	0.780526  
264.500000	0.562031  
265.000000	-0.024453 
265.500000	-0.796814 
266.000000	-1.058840 
266.500000	-1.084190 
267.000000	-0.918928 
267.500000	-1.021372 
268.000000	-1.081602 
268.500000	-1.182295 
269.000000	-1.044868 
269.500000	-1.032199 
270.000000	-1.362383 
270.500000	-1.359606 
271.000000	-1.155815 
271.500000	-0.829782 
272.000000	-0.594167 
272.500000	-0.846917 
273.000000	-1.509710 
273.500000	-1.959889 
274.000000	-2.313961 
274.500000	-2.755124 
275.000000	-2.953686 
275.500000	-2.793523 
276.000000	-2.304973 
276.500000	-1.401311 
277.000000	-1.084951 
277.500000	-1.125770 
278.000000	-1.216943 
278.500000	-1.254969 
279.000000	-1.455534 
279.500000	-1.699157 
280.000000	-1.987556 
280.500000	-2.339178 
281.000000	-2.373269 
281.500000	-2.650140 
282.000000	-2.871289 
282.500000	-2.996760 
283.000000	-2.968081 
283.500000	-2.827064 
284.000000	-2.464378 
284.500000	-1.990004 
285.000000	-1.827282 
285.500000	-1.651630 
286.000000	-1.831340 
286.500000	-2.094885 
287.000000	-2.429972 
287.500000	-2.660085 
288.000000	-2.837896 
288.500000	-2.743547 
289.000000	-2.361367 
289.500000	-2.030888 
290.000000	-1.602029 
290.500000	-1.375284 
291.000000	-1.326446 
291.500000	-1.528224 
292.000000	-2.139526 
292.500000	-2.691784 
293.000000	-3.086555 
293.500000	-3.354263 
294.000000	-3.497693 
294.500000	-3.439690 
295.000000	-3.170027 
295.500000	-2.822115 
296.000000	-2.545858 
296.500000	-2.822062 
297.000000	-3.086182 
297.500000	-3.007747 
298.000000	-2.829114 
298.500000	-2.408560 
299.000000	-1.994414 
299.500000	-1.568439 
300.000000	-1.022700 
300.500000	-0.564275 
301.000000	-0.574237 
301.500000	-0.959883 
302.000000	-1.271626 
302.500000	-1.726603 
303.000000	-1.981857 
303.500000	-2.091730 
304.000000	-2.296884 
304.500000	-2.410729 
305.000000	-2.380845 
305.500000	-2.288772 
306.000000	-2.323449 
306.500000	-2.265540 
307.000000	-2.394229 
307.500000	-2.197531 
308.000000	-1.724169 
308.500000	-1.456729 
309.000000	-1.256661 
309.500000	-1.003256 
310.000000	-0.716339 
310.500000	-0.470760 
311.000000	-0.289057 
311.500000	-0.572660 
312.000000	-0.782935 
312.500000	-0.787850 
313.000000	-0.830584 
313.500000	-0.795455 
314.000000	-0.388409 
314.500000	0.347916  
315.000000	1.229937  
315.500000	2.240087  
316.000000	2.828345  
316.500000	3.171153  
317.000000	3.285870  
317.500000	2.868056  
318.000000	2.283035  
318.500000	1.772344  
319.000000	1.624072  
319.500000	1.748084  
320.000000	2.176323  
320.500000	2.809549  
321.000000	3.502374  
321.500000	4.100227  
322.000000	4.215608  
322.500000	4.036291  
323.000000	3.681202  
323.500000	3.337866  
324.000000	3.000889  
324.500000	2.614041  
325.000000	2.304366  
325.500000	2.164670  
326.000000	2.034930  
326.500000	1.758609  
327.000000	1.574618  
327.500000	1.452912  
328.000000	1.377337  
328.500000	1.611328  
329.000000	1.986862  
329.500000	2.430616  
330.000000	2.971346  
330.500000	3.296895  
331.000000	3.289821  
331.500000	3.125169  
332.000000	2.842213  
332.500000	2.324325  
333.000000	1.814077  
333.500000	1.472391  
334.000000	1.244969  
334.500000	1.133746  
335.000000	1.070031  
335.500000	1.015150  
336.000000	0.870751  
336.500000	0.811009  
337.000000	0.641398  
337.500000	0.403357  
338.000000	0.342830  
338.500000	0.394651  
339.000000	0.463989  
339.500000	0.653559  
340.000000	1.084690  
340.500000	1.251469  
341.000000	1.409958  
341.500000	1.531071  
342.000000	1.572943  
342.500000	1.749590  
343.000000	1.900104  
343.500000	1.941552  
344.000000	1.959192  
344.500000	2.182202  
345.000000	2.199028  
345.500000	2.204264  
346.000000	2.144155  
346.500000	2.104660  
347.000000	2.189887  
347.500000	2.354985  
348.000000	2.488111  
348.500000	2.601574  
349.000000	2.805980  
349.500000	2.797043  
350.000000	2.821646  
350.500000	2.699953  
351.000000	2.606207  
351.500000	2.422680  
352.000000	2.219180  
352.500000	2.021422  
353.000000	1.885513  
353.500000	1.787446  
354.000000	1.501331  
354.500000	1.315801  
355.000000	1.290793  
355.500000	1.444713  
356.000000	1.553612  
356.500000	1.764999  
357.000000	2.070777  
357.500000	2.327608  
358.000000	2.568524  
358.500000	2.626528  
359.000000	2.526231  
359.500000	2.383107  
360.000000	2.225291  
360.500000	2.023592  
361.000000	1.925173  
361.500000	2.001444  
362.000000	1.992289  
362.500000	1.956715  
363.000000	2.076996  
363.500000	2.166494  
364.000000	2.211503  
364.500000	2.290004  
365.000000	2.187744  
365.500000	2.119730  
366.000000	2.112557  
366.500000	1.970966  
367.000000	1.755697  
367.500000	1.651714  
368.000000	1.609349  
368.500000	1.520339  
369.000000	1.605087  
369.500000	1.709885  
370.000000	1.878570  
370.500000	2.019397  
371.000000	2.047550  
371.500000	2.020663  
372.000000	1.997008  
372.500000	2.012635  
373.000000	1.928862  
373.500000	1.876909  
374.000000	1.908176  
374.500000	2.058820  
375.000000	2.196764  
375.500000	2.268260  
376.000000	2.309086  
376.500000	2.250111  
377.000000	2.255016  
377.500000	2.214495  
378.000000	2.076224  
378.500000	1.964593  
379.000000	1.912765  
379.500000	1.936448  
380.000000	2.028526  
380.500000	2.130069  
381.000000	2.149693  
381.500000	2.250313  
382.000000	2.406628  
382.500000	2.459210  
383.000000	2.450345  
383.500000	2.382474  
384.000000	2.306027  
384.500000	2.281955  
385.000000	2.221768  
385.500000	2.091193  
386.000000	1.974003  
386.500000	1.924204  
387.000000	1.854569  
387.500000	1.769939  
388.000000	1.674188  
388.500000	1.616408  
389.000000	1.678320  
389.500000	1.745422  
390.000000	1.791522  
390.500000	1.839831  
391.000000	1.917594  
391.500000	1.956634  
392.000000	1.902125  
392.500000	1.765928  
393.000000	1.616503  
393.500000	1.509388  
394.000000	1.444923  
394.500000	1.415304  
395.000000	1.489387  
395.500000	1.602008  
396.000000	1.728865  
396.500000	1.850742  
397.000000	1.879111  
397.500000	1.909546  
398.000000	1.885897  
398.500000	1.842021  
399.000000	1.781854  
399.500000	1.750897  
400.000000	1.754775  
400.500000	1.793057  
401.000000	1.875882  
401.500000	1.924004  
402.000000	2.036941  
402.500000	2.132544  
403.000000	2.217785  
403.500000	2.267906  
404.000000	2.289136  
404.500000	2.269417  
405.000000	2.222058  
405.500000	2.158931  
406.000000	2.069006  
406.500000	2.018406  
407.000000	1.995133  
407.500000	2.033052  
408.000000	2.097277  
408.500000	2.153997  
409.000000	2.147399  
409.500000	2.153313  
410.000000	2.138365  
410.500000	2.106209  
411.000000	2.047220  
411.500000	1.961759  
412.000000	1.920515  
412.500000	1.901537  
413.000000	1.902026  
413.500000	1.853334  
414.000000	1.839266  
414.500000	1.853867  
415.000000	1.886955  
415.500000	1.907798  
416.000000	1.894266  
416.500000	1.897300  
417.000000	1.890115  
417.500000	1.876732  
418.000000	1.815134  
418.500000	1.757546  
419.000000	1.693273  
419.500000	1.633166  
420.000000	1.570221  
420.500000	1.507531  
421.000000	1.487355  
421.500000	1.474010  
422.000000	1.451956  
422.500000	1.442325  
423.000000	1.478924  
423.500000	1.522132  
424.000000	1.564776  
424.500000	1.590084  
425.000000	1.575006  
425.500000	1.547438  
426.000000	1.525397  
426.500000	1.476644  
427.000000	1.426047  
427.500000	1.420139  
428.000000	1.437834  
428.500000	1.487613  
429.000000	1.565741  
429.500000	1.626049  
430.000000	1.663906  
430.500000	1.703324  
431.000000	1.735185  
431.500000	1.724454  
432.000000	1.707067  
432.500000	1.677657  
433.000000	1.662302  
433.500000	1.664031  
434.000000	1.658451  
434.500000	1.646624  
435.000000	1.634504  
435.500000	1.636984  
436.000000	1.618277  
436.500000	1.593091  
437.000000	1.563496  
437.500000	1.543102  
438.000000	1.520020  
438.500000	1.483601  
439.000000	1.438290  
439.500000	1.407430  
440.000000	1.398918  
440.500000	1.396595  
441.000000	1.396928  
441.500000	1.396343  
442.000000	1.407210  
442.500000	1.415777  
443.000000	1.418619  
443.500000	1.401243  
444.000000	1.391708  
444.500000	1.384000  

