PE FL                   SPECTRUM    ASCII       PEDS        1.60        
  -1
PP90DB~1
23/10/10
15:28:05.00
23/10/10
15:28:05.00


444.500000
1









LS55
45.00
5.00
5.00
SCAN
1
20
100
100
0
500
0
2
0
1
7
ON
500 450 
1 0 0
#HDR
-1
-1
#GR
NM

0.00002384185791015625
0.0
250.000000
0.500000
390
8
7.020685
-4.925639
#DATA
250.000000	1.468000  
250.500000	0.372356  
251.000000	-0.297173 
251.500000	-1.223065 
252.000000	-1.881346 
252.500000	-1.973176 
253.000000	-2.102809 
253.500000	-2.017075 
254.000000	-1.707899 
254.500000	-2.068778 
255.000000	-2.339444 
255.500000	-2.106007 
256.000000	-2.277096 
256.500000	-2.140346 
257.000000	-1.686187 
257.500000	-1.343668 
258.000000	-0.880246 
258.500000	-0.331574 
259.000000	-0.622886 
259.500000	-1.198506 
260.000000	-1.728087 
260.500000	-2.716211 
261.000000	-3.641557 
261.500000	-4.354592 
262.000000	-4.831462 
262.500000	-4.925639 
263.000000	-4.597993 
263.500000	-4.272743 
264.000000	-3.962437 
264.500000	-3.658603 
265.000000	-3.665172 
265.500000	-3.797633 
266.000000	-3.793245 
266.500000	-3.326349 
267.000000	-2.543134 
267.500000	-1.856848 
268.000000	-0.980258 
268.500000	0.097715  
269.000000	1.068279  
269.500000	1.564157  
270.000000	1.346843  
270.500000	0.639106  
271.000000	-0.007415 
271.500000	-0.552645 
272.000000	-1.366235 
272.500000	-2.248725 
273.000000	-2.808202 
273.500000	-3.095884 
274.000000	-3.262638 
274.500000	-3.502033 
275.000000	-3.988377 
275.500000	-4.125026 
276.000000	-3.894800 
276.500000	-3.633524 
277.000000	-3.526715 
277.500000	-3.088057 
278.000000	-2.654571 
278.500000	-2.384430 
279.000000	-2.440457 
279.500000	-2.550014 
280.000000	-2.567324 
280.500000	-2.461173 
281.000000	-2.332799 
281.500000	-2.453202 
282.000000	-2.232682 
282.500000	-1.542889 
283.000000	-0.735427 
283.500000	-0.183856 
284.000000	0.341984  
284.500000	0.796887  
285.000000	1.248183  
285.500000	1.400847  
286.000000	1.148162  
286.500000	0.778583  
287.000000	0.742102  
287.500000	0.928935  
288.000000	0.990092  
288.500000	1.310571  
289.000000	1.729481  
289.500000	1.865469  
290.000000	1.851395  
290.500000	1.600658  
291.000000	1.293311  
291.500000	1.235678  
292.000000	1.116171  
292.500000	1.075061  
293.000000	1.389226  
293.500000	2.156287  
294.000000	2.791157  
294.500000	3.276511  
295.000000	3.451501  
295.500000	3.347072  
296.000000	3.080311  
296.500000	2.513340  
297.000000	1.683242  
297.500000	1.170789  
298.000000	1.340455  
298.500000	1.911431  
299.000000	2.983022  
299.500000	3.855098  
300.000000	4.778642  
300.500000	5.500803  
301.000000	5.936279  
301.500000	6.003328  
302.000000	5.836498  
302.500000	5.333531  
303.000000	4.867664  
303.500000	4.642088  
304.000000	4.105432  
304.500000	3.752188  
305.000000	3.433357  
305.500000	3.193987  
306.000000	3.277335  
306.500000	3.742047  
307.000000	4.395288  
307.500000	5.256446  
308.000000	6.341735  
308.500000	6.890859  
309.000000	7.020685  
309.500000	6.878946  
310.000000	6.401398  
310.500000	5.777242  
311.000000	5.308258  
311.500000	5.145573  
312.000000	5.218876  
312.500000	5.381064  
313.000000	5.330488  
313.500000	4.940763  
314.000000	4.582185  
314.500000	4.334257  
315.000000	4.036198  
315.500000	3.839599  
316.000000	4.059466  
316.500000	4.596844  
317.000000	5.190074  
317.500000	5.517609  
318.000000	5.402152  
318.500000	4.935793  
319.000000	4.271278  
319.500000	3.380527  
320.000000	2.428932  
320.500000	1.749391  
321.000000	1.374745  
321.500000	1.359113  
322.000000	1.526841  
322.500000	1.882046  
323.000000	2.271986  
323.500000	2.456270  
324.000000	2.499711  
324.500000	2.295455  
325.000000	2.035978  
325.500000	1.652723  
326.000000	1.324804  
326.500000	1.101754  
327.000000	1.240602  
327.500000	1.499012  
328.000000	1.809796  
328.500000	2.167188  
329.000000	2.224404  
329.500000	2.144375  
330.000000	1.917873  
330.500000	1.685735  
331.000000	1.470409  
331.500000	1.565534  
332.000000	1.730773  
332.500000	2.066930  
333.000000	2.530514  
333.500000	2.681858  
334.000000	2.602881  
334.500000	2.354735  
335.000000	2.030495  
335.500000	1.666942  
336.000000	1.514007  
336.500000	1.329191  
337.000000	1.336705  
337.500000	1.417051  
338.000000	1.482546  
338.500000	1.583801  
339.000000	1.705503  
339.500000	1.727876  
340.000000	1.662197  
340.500000	1.655386  
341.000000	1.671055  
341.500000	1.756627  
342.000000	1.665157  
342.500000	1.519688  
343.000000	1.581479  
343.500000	1.739436  
344.000000	1.881311  
344.500000	1.888938  
345.000000	1.893515  
345.500000	1.944676  
346.000000	2.058668  
346.500000	2.019360  
347.000000	1.847662  
347.500000	1.785529  
348.000000	1.846356  
348.500000	1.949915  
349.000000	2.059522  
349.500000	2.161153  
350.000000	2.274858  
350.500000	2.359599  
351.000000	2.387106  
351.500000	2.284111  
352.000000	2.196939  
352.500000	2.106382  
353.000000	2.032165  
353.500000	2.052677  
354.000000	2.195287  
354.500000	2.420627  
355.000000	2.611516  
355.500000	2.749588  
356.000000	2.827415  
356.500000	2.852881  
357.000000	2.738441  
357.500000	2.618691  
358.000000	2.563590  
358.500000	2.552584  
359.000000	2.698189  
359.500000	2.864476  
360.000000	3.046565  
360.500000	3.244656  
361.000000	3.480881  
361.500000	3.554511  
362.000000	3.571316  
362.500000	3.565517  
363.000000	3.506808  
363.500000	3.534096  
364.000000	3.599476  
364.500000	3.665224  
365.000000	3.816800  
365.500000	4.066935  
366.000000	4.269276  
366.500000	4.353663  
367.000000	4.334793  
367.500000	4.196682  
368.000000	4.029312  
368.500000	3.901080  
369.000000	3.750882  
369.500000	3.622186  
370.000000	3.534887  
370.500000	3.614952  
371.000000	3.737324  
371.500000	3.816250  
372.000000	3.915447  
372.500000	3.975685  
373.000000	4.079091  
373.500000	4.172567  
374.000000	4.249450  
374.500000	4.247174  
375.000000	4.257542  
375.500000	4.205548  
376.000000	4.019580  
376.500000	3.838198  
377.000000	3.657402  
377.500000	3.466610  
378.000000	3.381103  
378.500000	3.334002  
379.000000	3.283267  
379.500000	3.278435  
380.000000	3.333716  
380.500000	3.233160  
381.000000	3.123235  
381.500000	3.080758  
382.000000	2.984169  
382.500000	2.937533  
383.000000	2.895546  
383.500000	2.838872  
384.000000	2.765094  
384.500000	2.819158  
385.000000	2.745388  
385.500000	2.615970  
386.000000	2.593383  
386.500000	2.602412  
387.000000	2.634831  
387.500000	2.663120  
388.000000	2.703734  
388.500000	2.698782  
389.000000	2.807177  
389.500000	2.788177  
390.000000	2.689244  
390.500000	2.601921  
391.000000	2.566429  
391.500000	2.476271  
392.000000	2.343105  
392.500000	2.228404  
393.000000	2.120359  
393.500000	2.094847  
394.000000	2.008693  
394.500000	1.887374  
395.000000	1.789868  
395.500000	1.765491  
396.000000	1.759407  
396.500000	1.732596  
397.000000	1.714791  
397.500000	1.718784  
398.000000	1.756695  
398.500000	1.787720  
399.000000	1.817817  
399.500000	1.840619  
400.000000	1.862491  
400.500000	1.858252  
401.000000	1.849472  
401.500000	1.836303  
402.000000	1.792932  
402.500000	1.716265  
403.000000	1.632268  
403.500000	1.585796  
404.000000	1.554982  
404.500000	1.556672  
405.000000	1.546049  
405.500000	1.570648  
406.000000	1.641692  
406.500000	1.696221  
407.000000	1.714770  
407.500000	1.704342  
408.000000	1.708439  
408.500000	1.691950  
409.000000	1.683176  
409.500000	1.619092  
410.000000	1.574532  
410.500000	1.553593  
411.000000	1.521160  
411.500000	1.487119  
412.000000	1.457872  
412.500000	1.464552  
413.000000	1.464563  
413.500000	1.500470  
414.000000	1.532636  
414.500000	1.586906  
415.000000	1.652261  
415.500000	1.710937  
416.000000	1.736647  
416.500000	1.749664  
417.000000	1.786731  
417.500000	1.791478  
418.000000	1.781363  
418.500000	1.759379  
419.000000	1.729097  
419.500000	1.687723  
420.000000	1.658098  
420.500000	1.605267  
421.000000	1.541094  
421.500000	1.508924  
422.000000	1.461843  
422.500000	1.416354  
423.000000	1.396485  
423.500000	1.379284  
424.000000	1.370781  
424.500000	1.375923  
425.000000	1.369949  
425.500000	1.357166  
426.000000	1.331549  
426.500000	1.287130  
427.000000	1.254824  
427.500000	1.219043  
428.000000	1.180196  
428.500000	1.157288  
429.000000	1.140657  
429.500000	1.125932  
430.000000	1.134786  
430.500000	1.126460  
431.000000	1.094743  
431.500000	1.086973  
432.000000	1.077830  
432.500000	1.073532  
433.000000	1.071334  
433.500000	1.068018  
434.000000	1.043844  
434.500000	1.032858  
435.000000	1.026805  
435.500000	0.986975  
436.000000	0.960598  
436.500000	0.950992  
437.000000	0.964780  
437.500000	0.990724  
438.000000	1.039187  
438.500000	1.079341  
439.000000	1.120560  
439.500000	1.159463  
440.000000	1.184646  
440.500000	1.186996  
441.000000	1.179604  
441.500000	1.167571  
442.000000	1.141911  
442.500000	1.114371  
443.000000	1.079353  
443.500000	1.044078  
444.000000	1.014899  
444.500000	1.008588  

