PE FL                   SPECTRUM    ASCII       PEDS        1.60        
  -1
PP908B~1
23/10/10
15:24:42.00
23/10/10
15:24:42.00


444.500000
1









LS55
20.00
5.00
5.00
SCAN
1
20
100
100
0
500
0
2
0
1
7
ON
500 450 
1 0 0
#HDR
-1
-1
#GR
NM

0.00002384185791015625
0.0
250.000000
0.500000
390
8
4.068225
-3.625674
#DATA
250.000000	0.000000  
250.500000	-0.914986 
251.000000	-1.452083 
251.500000	-2.136912 
252.000000	-2.224794 
252.500000	-1.584318 
253.000000	-1.125057 
253.500000	-0.913058 
254.000000	-0.547800 
254.500000	-0.315897 
255.000000	-0.357635 
255.500000	-0.433931 
256.000000	-0.932263 
256.500000	-1.268697 
257.000000	-1.466396 
257.500000	-1.748861 
258.000000	-2.114501 
258.500000	-2.247058 
259.000000	-2.098834 
259.500000	-1.771465 
260.000000	-1.191203 
260.500000	-0.880567 
261.000000	-0.433929 
261.500000	-0.264548 
262.000000	-0.490492 
262.500000	-1.018809 
263.000000	-1.459811 
263.500000	-1.835773 
264.000000	-2.010177 
264.500000	-1.991880 
265.000000	-2.145432 
265.500000	-2.036407 
266.000000	-1.790267 
266.500000	-1.467431 
267.000000	-1.490186 
267.500000	-1.156283 
268.000000	-0.802015 
268.500000	-0.494074 
269.000000	0.136697  
269.500000	0.329607  
270.000000	0.213903  
270.500000	0.189546  
271.000000	0.321410  
271.500000	-0.075151 
272.000000	-0.444893 
272.500000	-0.794191 
273.000000	-1.334562 
273.500000	-1.556402 
274.000000	-1.845488 
274.500000	-2.386244 
275.000000	-2.940273 
275.500000	-3.116111 
276.000000	-3.425053 
276.500000	-3.625674 
277.000000	-3.341206 
277.500000	-3.272117 
278.000000	-2.932609 
278.500000	-2.468047 
279.000000	-2.147971 
279.500000	-1.664693 
280.000000	-0.947252 
280.500000	-0.371733 
281.000000	0.164714  
281.500000	0.923022  
282.000000	1.259587  
282.500000	1.447703  
283.000000	1.494614  
283.500000	1.102980  
284.000000	0.577153  
284.500000	0.324626  
285.000000	-0.050217 
285.500000	-0.274947 
286.000000	-0.394118 
286.500000	-0.516581 
287.000000	-0.544189 
287.500000	-0.670686 
288.000000	-0.960182 
288.500000	-1.274826 
289.000000	-1.416517 
289.500000	-1.729642 
290.000000	-1.494485 
290.500000	-1.210174 
291.000000	-0.773737 
291.500000	-0.498574 
292.000000	-0.433057 
292.500000	-0.410678 
293.000000	-0.475217 
293.500000	-0.521687 
294.000000	-0.811833 
294.500000	-0.655356 
295.000000	-0.429914 
295.500000	-0.205884 
296.000000	-0.260145 
296.500000	-0.623041 
297.000000	-0.922604 
297.500000	-1.133134 
298.000000	-1.232813 
298.500000	-1.413881 
299.000000	-1.264007 
299.500000	-0.887989 
300.000000	-0.345654 
300.500000	0.094670  
301.000000	0.139777  
301.500000	0.182827  
302.000000	0.251166  
302.500000	0.192271  
303.000000	0.223207  
303.500000	0.480193  
304.000000	0.707536  
304.500000	0.991337  
305.000000	1.186221  
305.500000	0.906096  
306.000000	0.492453  
306.500000	0.127907  
307.000000	-0.373933 
307.500000	-0.715275 
308.000000	-0.680320 
308.500000	-0.595558 
309.000000	-0.288080 
309.500000	0.120433  
310.000000	0.307148  
310.500000	0.223705  
311.000000	0.037193  
311.500000	-0.352661 
312.000000	-0.670029 
312.500000	-0.673231 
313.000000	-0.581551 
313.500000	-0.151674 
314.000000	0.510810  
314.500000	1.329932  
315.000000	1.911226  
315.500000	2.286413  
316.000000	2.422442  
316.500000	2.484330  
317.000000	2.427591  
317.500000	2.086704  
318.000000	1.773712  
318.500000	1.773040  
319.000000	2.205499  
319.500000	2.467320  
320.000000	2.820735  
320.500000	3.237264  
321.000000	3.761522  
321.500000	4.068225  
322.000000	3.932164  
322.500000	3.696020  
323.000000	3.569923  
323.500000	3.629064  
324.000000	3.378067  
324.500000	3.317611  
325.000000	3.300361  
325.500000	3.315934  
326.000000	3.065232  
326.500000	2.465405  
327.000000	1.722521  
327.500000	1.171654  
328.000000	0.742699  
328.500000	0.248046  
329.000000	0.181929  
329.500000	0.433533  
330.000000	0.931629  
330.500000	1.364868  
331.000000	1.649764  
331.500000	1.766310  
332.000000	1.866038  
332.500000	1.841313  
333.000000	1.546749  
333.500000	1.297026  
334.000000	1.205316  
334.500000	1.495390  
335.000000	1.740772  
335.500000	1.932653  
336.000000	2.008988  
336.500000	2.079467  
337.000000	2.138513  
337.500000	1.959730  
338.000000	1.586161  
338.500000	1.118293  
339.000000	0.937181  
339.500000	0.816619  
340.000000	0.759564  
340.500000	0.744559  
341.000000	0.800619  
341.500000	0.988365  
342.000000	1.144430  
342.500000	1.254957  
343.000000	1.283761  
343.500000	1.354966  
344.000000	1.415507  
344.500000	1.402239  
345.000000	1.276597  
345.500000	1.105788  
346.000000	0.949965  
346.500000	0.850037  
347.000000	0.893079  
347.500000	1.077342  
348.000000	1.326197  
348.500000	1.583610  
349.000000	1.767087  
349.500000	1.784841  
350.000000	1.692633  
350.500000	1.428639  
351.000000	1.087829  
351.500000	0.743024  
352.000000	0.555334  
352.500000	0.487664  
353.000000	0.498728  
353.500000	0.666856  
354.000000	0.827589  
354.500000	1.044240  
355.000000	1.136339  
355.500000	1.135485  
356.000000	1.014221  
356.500000	0.958807  
357.000000	0.975222  
357.500000	0.963272  
358.000000	1.080952  
358.500000	1.238146  
359.000000	1.507682  
359.500000	1.767215  
360.000000	1.973509  
360.500000	1.956583  
361.000000	1.811264  
361.500000	1.570602  
362.000000	1.148707  
362.500000	0.689366  
363.000000	0.260112  
363.500000	-0.042883 
364.000000	-0.189602 
364.500000	-0.202277 
365.000000	-0.063688 
365.500000	0.177045  
366.000000	0.479468  
366.500000	0.809991  
367.000000	1.105809  
367.500000	1.388726  
368.000000	1.564792  
368.500000	1.684011  
369.000000	1.647827  
369.500000	1.595796  
370.000000	1.531652  
370.500000	1.427585  
371.000000	1.382871  
371.500000	1.368996  
372.000000	1.464175  
372.500000	1.541801  
373.000000	1.677402  
373.500000	1.728564  
374.000000	1.814032  
374.500000	1.799453  
375.000000	1.732726  
375.500000	1.634058  
376.000000	1.495174  
376.500000	1.415833  
377.000000	1.282713  
377.500000	1.187595  
378.000000	1.073777  
378.500000	1.091791  
379.000000	1.060854  
379.500000	1.100450  
380.000000	1.199546  
380.500000	1.306180  
381.000000	1.432989  
381.500000	1.495825  
382.000000	1.527660  
382.500000	1.516654  
383.000000	1.561840  
383.500000	1.538664  
384.000000	1.530358  
384.500000	1.521261  
385.000000	1.553942  
385.500000	1.641890  
386.000000	1.700884  
386.500000	1.783454  
387.000000	1.847071  
387.500000	1.950696  
388.000000	2.023989  
388.500000	2.023492  
389.000000	1.923394  
389.500000	1.803933  
390.000000	1.708524  
390.500000	1.586560  
391.000000	1.439098  
391.500000	1.266447  
392.000000	1.218914  
392.500000	1.232740  
393.000000	1.281709  
393.500000	1.319275  
394.000000	1.371508  
394.500000	1.447711  
395.000000	1.535124  
395.500000	1.570439  
396.000000	1.527053  
396.500000	1.557643  
397.000000	1.596332  
397.500000	1.618364  
398.000000	1.624423  
398.500000	1.610941  
399.000000	1.537493  
399.500000	1.493815  
400.000000	1.419549  
400.500000	1.316007  
401.000000	1.281985  
401.500000	1.269621  
402.000000	1.260844  
402.500000	1.317597  
403.000000	1.412529  
403.500000	1.480842  
404.000000	1.539514  
404.500000	1.546350  
405.000000	1.513574  
405.500000	1.522799  
406.000000	1.546199  
406.500000	1.498097  
407.000000	1.456138  
407.500000	1.443801  
408.000000	1.451092  
408.500000	1.459640  
409.000000	1.440844  
409.500000	1.365469  
410.000000	1.313445  
410.500000	1.318920  
411.000000	1.294213  
411.500000	1.264144  
412.000000	1.235725  
412.500000	1.260650  
413.000000	1.315082  
413.500000	1.362902  
414.000000	1.368070  
414.500000	1.327677  
415.000000	1.295653  
415.500000	1.279630  
416.000000	1.281751  
416.500000	1.266529  
417.000000	1.288614  
417.500000	1.315939  
418.000000	1.342558  
418.500000	1.382113  
419.000000	1.381379  
419.500000	1.345475  
420.000000	1.286523  
420.500000	1.232724  
421.000000	1.137414  
421.500000	1.055157  
422.000000	0.967074  
422.500000	0.874484  
423.000000	0.819513  
423.500000	0.801746  
424.000000	0.841918  
424.500000	0.915040  
425.000000	1.030736  
425.500000	1.151654  
426.000000	1.276928  
426.500000	1.377567  
427.000000	1.436886  
427.500000	1.438757  
428.000000	1.396723  
428.500000	1.359386  
429.000000	1.313862  
429.500000	1.265617  
430.000000	1.198437  
430.500000	1.122327  
431.000000	1.053084  
431.500000	1.013080  
432.000000	0.975010  
432.500000	0.947878  
433.000000	0.945859  
433.500000	0.979757  
434.000000	1.040280  
434.500000	1.090077  
435.000000	1.120616  
435.500000	1.142895  
436.000000	1.159642  
436.500000	1.155218  
437.000000	1.133252  
437.500000	1.097458  
438.000000	1.073536  
438.500000	1.068755  
439.000000	1.065438  
439.500000	1.058963  
440.000000	1.052091  
440.500000	1.043562  
441.000000	1.026585  
441.500000	1.006615  
442.000000	0.998011  
442.500000	0.990848  
443.000000	0.996648  
443.500000	1.004911  
444.000000	1.021412  
444.500000	1.042923  

