PE FL                   SPECTRUM    ASCII       PEDS        1.60        
  -1
PP909B~1
23/10/10
15:25:23.00
23/10/10
15:25:23.00


444.500000
1









LS55
25.00
5.00
5.00
SCAN
1
20
100
100
0
500
0
2
0
1
7
ON
500 450 
1 0 0
#HDR
-1
-1
#GR
NM

0.00002384185791015625
0.0
250.000000
0.500000
390
8
5.420158
-4.734657
#DATA
250.000000	-1.394000 
250.500000	-2.300609 
251.000000	-3.179371 
251.500000	-3.672351 
252.000000	-3.893796 
252.500000	-3.893040 
253.000000	-3.748347 
253.500000	-3.652242 
254.000000	-3.784276 
254.500000	-3.933939 
255.000000	-4.048088 
255.500000	-4.228082 
256.000000	-4.386687 
256.500000	-4.698524 
257.000000	-4.734657 
257.500000	-4.593462 
258.000000	-4.308481 
258.500000	-4.131529 
259.000000	-3.897761 
259.500000	-3.634546 
260.000000	-3.080784 
260.500000	-2.343380 
261.000000	-2.196310 
261.500000	-1.840959 
262.000000	-1.375751 
262.500000	-0.897131 
263.000000	-0.663237 
263.500000	-0.594798 
264.000000	-0.974162 
264.500000	-1.209542 
265.000000	-1.260669 
265.500000	-2.181628 
266.000000	-3.053166 
266.500000	-3.631349 
267.000000	-3.848526 
267.500000	-3.613396 
268.000000	-3.034322 
268.500000	-2.521306 
269.000000	-1.836273 
269.500000	-1.036459 
270.000000	-0.690966 
270.500000	-0.637872 
271.000000	-0.682634 
271.500000	-1.048914 
272.000000	-1.221848 
272.500000	-1.298097 
273.000000	-1.377148 
273.500000	-1.582034 
274.000000	-1.861309 
274.500000	-2.238273 
275.000000	-2.658970 
275.500000	-2.967794 
276.000000	-3.319656 
276.500000	-3.314037 
277.000000	-3.051139 
277.500000	-2.707905 
278.000000	-2.178494 
278.500000	-1.757876 
279.000000	-1.298281 
279.500000	-1.066396 
280.000000	-1.037074 
280.500000	-1.071918 
281.000000	-0.976644 
281.500000	-0.797023 
282.000000	-0.973247 
282.500000	-0.921627 
283.000000	-0.787534 
283.500000	-0.537301 
284.000000	-0.456719 
284.500000	-0.445833 
285.000000	-0.512821 
285.500000	-0.503387 
286.000000	-0.444031 
286.500000	-0.914958 
287.000000	-1.270383 
287.500000	-1.577947 
288.000000	-1.698348 
288.500000	-1.880819 
289.000000	-1.848787 
289.500000	-1.969120 
290.000000	-1.954789 
290.500000	-1.847464 
291.000000	-1.711325 
291.500000	-1.456875 
292.000000	-1.158194 
292.500000	-0.742838 
293.000000	-0.405831 
293.500000	0.184798  
294.000000	0.483922  
294.500000	0.658982  
295.000000	0.532387  
295.500000	0.375651  
296.000000	0.176357  
296.500000	-0.237898 
297.000000	-0.546323 
297.500000	-0.799894 
298.000000	-0.698955 
298.500000	-0.584944 
299.000000	-0.307308 
299.500000	-0.247707 
300.000000	-0.183977 
300.500000	-0.028303 
301.000000	0.289600  
301.500000	0.766588  
302.000000	1.351093  
302.500000	2.166799  
303.000000	3.094942  
303.500000	3.984408  
304.000000	4.906373  
304.500000	5.420158  
305.000000	5.315387  
305.500000	5.001789  
306.000000	4.343809  
306.500000	3.475278  
307.000000	2.616939  
307.500000	1.784374  
308.000000	0.980082  
308.500000	0.647321  
309.000000	0.601143  
309.500000	0.499472  
310.000000	0.788243  
310.500000	1.154024  
311.000000	1.686581  
311.500000	2.340604  
312.000000	3.039538  
312.500000	3.624716  
313.000000	4.121067  
313.500000	4.472259  
314.000000	4.381506  
314.500000	4.209629  
315.000000	3.835237  
315.500000	3.337524  
316.000000	2.553584  
316.500000	1.583041  
317.000000	0.876324  
317.500000	0.284104  
318.000000	0.022466  
318.500000	-0.076405 
319.000000	0.162902  
319.500000	0.915905  
320.000000	1.867031  
320.500000	2.651308  
321.000000	3.133367  
321.500000	3.489695  
322.000000	3.587694  
322.500000	3.494281  
323.000000	3.214690  
323.500000	2.745997  
324.000000	2.702694  
324.500000	2.867499  
325.000000	3.117368  
325.500000	3.314068  
326.000000	3.484030  
326.500000	3.440123  
327.000000	3.176012  
327.500000	2.834507  
328.000000	2.236102  
328.500000	1.950267  
329.000000	1.736354  
329.500000	1.542658  
330.000000	1.438196  
330.500000	1.424141  
331.000000	1.510794  
331.500000	1.633806  
332.000000	1.692980  
332.500000	1.485121  
333.000000	1.342568  
333.500000	1.223985  
334.000000	0.955355  
334.500000	0.745719  
335.000000	0.487287  
335.500000	0.236378  
336.000000	0.137333  
336.500000	0.207234  
337.000000	0.287723  
337.500000	0.513165  
338.000000	0.850556  
338.500000	1.137166  
339.000000	1.516216  
339.500000	1.747988  
340.000000	1.798994  
340.500000	1.766389  
341.000000	1.754737  
341.500000	1.654380  
342.000000	1.379587  
342.500000	1.014332  
343.000000	0.572343  
343.500000	0.277104  
344.000000	0.018924  
344.500000	-0.133926 
345.000000	-0.143875 
345.500000	-0.013646 
346.000000	0.290192  
346.500000	0.594607  
347.000000	0.878573  
347.500000	1.173657  
348.000000	1.441397  
348.500000	1.523775  
349.000000	1.563493  
349.500000	1.681289  
350.000000	1.735060  
350.500000	1.769448  
351.000000	1.704703  
351.500000	1.533116  
352.000000	1.333647  
352.500000	1.135386  
353.000000	0.894638  
353.500000	0.756837  
354.000000	0.873177  
354.500000	1.079121  
355.000000	1.305591  
355.500000	1.460085  
356.000000	1.560326  
356.500000	1.587046  
357.000000	1.489297  
357.500000	1.249971  
358.000000	1.038559  
358.500000	0.901317  
359.000000	0.813743  
359.500000	0.826703  
360.000000	0.813673  
360.500000	0.866533  
361.000000	1.000651  
361.500000	1.163186  
362.000000	1.256081  
362.500000	1.321207  
363.000000	1.384877  
363.500000	1.372014  
364.000000	1.406191  
364.500000	1.332004  
365.000000	1.103705  
365.500000	0.963875  
366.000000	0.938470  
366.500000	0.996834  
367.000000	1.064679  
367.500000	1.239442  
368.000000	1.325408  
368.500000	1.414191  
369.000000	1.466590  
369.500000	1.300831  
370.000000	1.131513  
370.500000	1.015603  
371.000000	0.970888  
371.500000	0.882311  
372.000000	0.999258  
372.500000	1.119949  
373.000000	1.243163  
373.500000	1.295377  
374.000000	1.190282  
374.500000	1.076317  
375.000000	0.986893  
375.500000	0.912801  
376.000000	0.796709  
376.500000	0.896283  
377.000000	1.105178  
377.500000	1.379221  
378.000000	1.550772  
378.500000	1.574603  
379.000000	1.450238  
379.500000	1.170228  
380.000000	0.866058  
380.500000	0.533523  
381.000000	0.345031  
381.500000	0.333562  
382.000000	0.530621  
382.500000	0.839522  
383.000000	1.192553  
383.500000	1.514095  
384.000000	1.644941  
384.500000	1.726587  
385.000000	1.711909  
385.500000	1.603990  
386.000000	1.441938  
386.500000	1.283256  
387.000000	1.150278  
387.500000	1.043576  
388.000000	0.999840  
388.500000	0.902131  
389.000000	0.880816  
389.500000	0.943741  
390.000000	1.051531  
390.500000	1.136901  
391.000000	1.244681  
391.500000	1.384110  
392.000000	1.473803  
392.500000	1.586893  
393.000000	1.628312  
393.500000	1.611856  
394.000000	1.613205  
394.500000	1.631164  
395.000000	1.630567  
395.500000	1.574225  
396.000000	1.508542  
396.500000	1.423884  
397.000000	1.433309  
397.500000	1.474079  
398.000000	1.481134  
398.500000	1.474788  
399.000000	1.482686  
399.500000	1.528365  
400.000000	1.522228  
400.500000	1.490207  
401.000000	1.425495  
401.500000	1.373682  
402.000000	1.362164  
402.500000	1.332447  
403.000000	1.283648  
403.500000	1.204115  
404.000000	1.161899  
404.500000	1.141922  
405.000000	1.129311  
405.500000	1.135195  
406.000000	1.111955  
406.500000	1.113603  
407.000000	1.093735  
407.500000	1.111324  
408.000000	1.078537  
408.500000	1.025171  
409.000000	0.994599  
409.500000	0.992285  
410.000000	0.991329  
410.500000	0.963162  
411.000000	0.950948  
411.500000	0.914590  
412.000000	0.941306  
412.500000	0.956257  
413.000000	0.981741  
413.500000	1.061904  
414.000000	1.240204  
414.500000	1.414439  
415.000000	1.570335  
415.500000	1.695152  
416.000000	1.745620  
416.500000	1.755543  
417.000000	1.680804  
417.500000	1.556924  
418.000000	1.397077  
418.500000	1.325369  
419.000000	1.292351  
419.500000	1.278629  
420.000000	1.282639  
420.500000	1.292932  
421.000000	1.294685  
421.500000	1.270625  
422.000000	1.240065  
422.500000	1.160268  
423.000000	1.104652  
423.500000	1.100573  
424.000000	1.114710  
424.500000	1.140205  
425.000000	1.154575  
425.500000	1.155490  
426.000000	1.142049  
426.500000	1.145246  
427.000000	1.127525  
427.500000	1.096931  
428.000000	1.107584  
428.500000	1.124297  
429.000000	1.145361  
429.500000	1.159781  
430.000000	1.162068  
430.500000	1.136148  
431.000000	1.104087  
431.500000	1.053398  
432.000000	0.975478  
432.500000	0.921569  
433.000000	0.885362  
433.500000	0.872231  
434.000000	0.878317  
434.500000	0.893200  
435.000000	0.922126  
435.500000	0.974225  
436.000000	1.029033  
436.500000	1.044515  
437.000000	1.068114  
437.500000	1.086810  
438.000000	1.089718  
438.500000	1.080954  
439.000000	1.044028  
439.500000	0.994733  
440.000000	0.967871  
440.500000	0.960013  
441.000000	0.934645  
441.500000	0.927864  
442.000000	0.934947  
442.500000	0.957381  
443.000000	0.987810  
443.500000	1.002777  
444.000000	0.993047  
444.500000	0.974039  

