PE FL                   SPECTRUM    ASCII       PEDS        1.60        
  -1
PPFF93~1
23/10/10
16:20:29.00
23/10/10
16:20:29.00


444.500000
1









LS55
20.00
5.00
5.00
SCAN
1
20
100
100
0
500
0
2
0
1
7
ON
500 450 
1 0 0
#HDR
-1
-1
#GR
NM

0.00002384185791015625
0.0
250.000000
0.500000
390
8
5.715034
-4.035623
#DATA
250.000000	-2.849000 
250.500000	-2.358188 
251.000000	-1.839109 
251.500000	-1.494809 
252.000000	-1.092827 
252.500000	-1.011816 
253.000000	-1.163964 
253.500000	-1.305106 
254.000000	-1.306674 
254.500000	-1.265709 
255.000000	-1.476535 
255.500000	-1.700496 
256.000000	-2.117129 
256.500000	-2.222806 
257.000000	-2.447734 
257.500000	-3.092449 
258.000000	-3.696688 
258.500000	-4.010339 
259.000000	-3.945628 
259.500000	-3.629241 
260.000000	-2.844818 
260.500000	-2.297398 
261.000000	-1.602275 
261.500000	-0.785511 
262.000000	0.009794  
262.500000	0.897957  
263.000000	1.718304  
263.500000	2.266797  
264.000000	2.534471  
264.500000	2.634112  
265.000000	2.198378  
265.500000	1.322668  
266.000000	-0.058982 
266.500000	-1.462912 
267.000000	-2.668651 
267.500000	-3.478691 
268.000000	-3.928606 
268.500000	-4.035623 
269.000000	-3.890139 
269.500000	-3.560937 
270.000000	-3.312811 
270.500000	-3.391909 
271.000000	-3.528786 
271.500000	-3.697724 
272.000000	-3.686814 
272.500000	-3.618657 
273.000000	-3.253804 
273.500000	-2.949107 
274.000000	-2.440227 
274.500000	-2.002482 
275.000000	-1.788471 
275.500000	-1.677745 
276.000000	-1.876301 
276.500000	-2.067395 
277.000000	-2.452897 
277.500000	-2.915169 
278.000000	-3.315548 
278.500000	-3.356260 
279.000000	-3.413204 
279.500000	-3.300087 
280.000000	-3.009871 
280.500000	-2.776284 
281.000000	-2.473260 
281.500000	-2.230269 
282.000000	-2.239554 
282.500000	-2.547055 
283.000000	-2.703698 
283.500000	-3.133331 
284.000000	-3.430822 
284.500000	-3.543013 
285.000000	-3.618530 
285.500000	-3.830225 
286.000000	-3.653548 
286.500000	-3.187716 
287.000000	-2.721137 
287.500000	-1.924940 
288.000000	-1.364835 
288.500000	-0.787647 
289.000000	-0.271501 
289.500000	0.109467  
290.000000	-0.095046 
290.500000	-0.546813 
291.000000	-1.080532 
291.500000	-1.758335 
292.000000	-2.436869 
292.500000	-3.027212 
293.000000	-3.363334 
293.500000	-3.549353 
294.000000	-3.463421 
294.500000	-3.258996 
295.000000	-2.925797 
295.500000	-2.543551 
296.000000	-2.183101 
296.500000	-2.062325 
297.000000	-1.923457 
297.500000	-1.792697 
298.000000	-1.758235 
298.500000	-1.906354 
299.000000	-1.852266 
299.500000	-1.725151 
300.000000	-1.472555 
300.500000	-1.151479 
301.000000	-1.228201 
301.500000	-1.279404 
302.000000	-1.382499 
302.500000	-1.432984 
303.000000	-1.582923 
303.500000	-1.403404 
304.000000	-1.181436 
304.500000	-1.005102 
305.000000	-0.648067 
305.500000	-0.464802 
306.000000	-0.370696 
306.500000	-0.529802 
307.000000	-0.772433 
307.500000	-1.012610 
308.000000	-1.042938 
308.500000	-0.901710 
309.000000	-0.947505 
309.500000	-0.741690 
310.000000	-0.305012 
310.500000	0.072916  
311.000000	0.347309  
311.500000	0.598260  
312.000000	0.825885  
312.500000	1.207415  
313.000000	1.637697  
313.500000	1.886829  
314.000000	2.198850  
314.500000	2.772336  
315.000000	3.244832  
315.500000	3.414660  
316.000000	3.557935  
316.500000	3.555676  
317.000000	3.588500  
317.500000	3.480152  
318.000000	3.206792  
318.500000	3.064217  
319.000000	3.284801  
319.500000	3.613259  
320.000000	3.835755  
320.500000	4.231539  
321.000000	4.620094  
321.500000	5.066363  
322.000000	5.243517  
322.500000	5.195922  
323.000000	5.211745  
323.500000	5.322852  
324.000000	5.438623  
324.500000	5.354883  
325.000000	5.196553  
325.500000	5.104931  
326.000000	4.992405  
326.500000	4.732297  
327.000000	4.423764  
327.500000	4.040806  
328.000000	3.821405  
328.500000	3.637844  
329.000000	3.477908  
329.500000	3.308144  
330.000000	3.177880  
330.500000	2.983283  
331.000000	2.618019  
331.500000	2.361658  
332.000000	2.107830  
332.500000	1.982774  
333.000000	2.001547  
333.500000	2.145378  
334.000000	2.455236  
334.500000	2.920438  
335.000000	3.265583  
335.500000	3.491559  
336.000000	3.707689  
336.500000	3.790123  
337.000000	3.841201  
337.500000	3.828252  
338.000000	3.691372  
338.500000	3.459788  
339.000000	3.378060  
339.500000	3.322407  
340.000000	3.281144  
340.500000	3.322723  
341.000000	3.392001  
341.500000	3.464264  
342.000000	3.658589  
342.500000	3.725472  
343.000000	3.603725  
343.500000	3.383544  
344.000000	3.052679  
344.500000	2.712084  
345.000000	2.504223  
345.500000	2.443163  
346.000000	2.536203  
346.500000	2.877656  
347.000000	3.361380  
347.500000	3.873042  
348.000000	4.359486  
348.500000	4.648898  
349.000000	4.767034  
349.500000	4.743508  
350.000000	4.532158  
350.500000	4.129941  
351.000000	3.695016  
351.500000	3.384171  
352.000000	3.233355  
352.500000	3.266321  
353.000000	3.367199  
353.500000	3.646965  
354.000000	4.044795  
354.500000	4.477422  
355.000000	4.796113  
355.500000	5.015517  
356.000000	5.224804  
356.500000	5.440671  
357.000000	5.645533  
357.500000	5.696020  
358.000000	5.715034  
358.500000	5.691793  
359.000000	5.626070  
359.500000	5.386691  
360.000000	5.062813  
360.500000	4.720796  
361.000000	4.517710  
361.500000	4.485584  
362.000000	4.535474  
362.500000	4.723273  
363.000000	4.949024  
363.500000	5.152008  
364.000000	5.262219  
364.500000	5.250626  
365.000000	5.121782  
365.500000	4.905597  
366.000000	4.611594  
366.500000	4.277085  
367.000000	3.996277  
367.500000	3.814962  
368.000000	3.657154  
368.500000	3.590437  
369.000000	3.597782  
369.500000	3.794215  
370.000000	4.146708  
370.500000	4.482363  
371.000000	4.753148  
371.500000	4.966567  
372.000000	5.141137  
372.500000	5.136146  
373.000000	4.988178  
373.500000	4.652951  
374.000000	4.326457  
374.500000	4.174587  
375.000000	4.091018  
375.500000	4.037903  
376.000000	4.069145  
376.500000	4.239546  
377.000000	4.447328  
377.500000	4.689228  
378.000000	4.847676  
378.500000	4.940698  
379.000000	5.044975  
379.500000	5.135606  
380.000000	5.137102  
380.500000	5.059161  
381.000000	4.958925  
381.500000	4.815443  
382.000000	4.693693  
382.500000	4.582884  
383.000000	4.516376  
383.500000	4.486818  
384.000000	4.540951  
384.500000	4.618419  
385.000000	4.699818  
385.500000	4.751605  
386.000000	4.707145  
386.500000	4.603137  
387.000000	4.447955  
387.500000	4.311805  
388.000000	4.128452  
388.500000	4.013658  
389.000000	3.969305  
389.500000	4.019967  
390.000000	4.142107  
390.500000	4.247020  
391.000000	4.332609  
391.500000	4.392750  
392.000000	4.448425  
392.500000	4.463369  
393.000000	4.460687  
393.500000	4.422685  
394.000000	4.393844  
394.500000	4.412583  
395.000000	4.344184  
395.500000	4.216116  
396.000000	4.060329  
396.500000	3.902035  
397.000000	3.771380  
397.500000	3.694208  
398.000000	3.648885  
398.500000	3.683158  
399.000000	3.853465  
399.500000	3.997682  
400.000000	4.138227  
400.500000	4.257978  
401.000000	4.311497  
401.500000	4.313849  
402.000000	4.262348  
402.500000	4.141725  
403.000000	4.018912  
403.500000	3.959602  
404.000000	3.864752  
404.500000	3.812040  
405.000000	3.803735  
405.500000	3.810099  
406.000000	3.784571  
406.500000	3.786222  
407.000000	3.771815  
407.500000	3.756593  
408.000000	3.765016  
408.500000	3.749697  
409.000000	3.742255  
409.500000	3.774268  
410.000000	3.793808  
410.500000	3.770553  
411.000000	3.755716  
411.500000	3.717582  
412.000000	3.666505  
412.500000	3.618087  
413.000000	3.569782  
413.500000	3.552552  
414.000000	3.586464  
414.500000	3.617386  
415.000000	3.643701  
415.500000	3.665168  
416.000000	3.644849  
416.500000	3.587656  
417.000000	3.503050  
417.500000	3.410741  
418.000000	3.337103  
418.500000	3.292887  
419.000000	3.223641  
419.500000	3.193513  
420.000000	3.168172  
420.500000	3.111593  
421.000000	3.035279  
421.500000	2.935898  
422.000000	2.839064  
422.500000	2.742695  
423.000000	2.649834  
423.500000	2.579734  
424.000000	2.553841  
424.500000	2.563190  
425.000000	2.585159  
425.500000	2.597656  
426.000000	2.596429  
426.500000	2.616930  
427.000000	2.608317  
427.500000	2.597218  
428.000000	2.606766  
428.500000	2.628526  
429.000000	2.673304  
429.500000	2.693356  
430.000000	2.720847  
430.500000	2.724158  
431.000000	2.721567  
431.500000	2.664764  
432.000000	2.576699  
432.500000	2.497090  
433.000000	2.433932  
433.500000	2.409338  
434.000000	2.387611  
434.500000	2.429982  
435.000000	2.491103  
435.500000	2.563683  
436.000000	2.588407  
436.500000	2.580916  
437.000000	2.563833  
437.500000	2.553220  
438.000000	2.538712  
438.500000	2.491324  
439.000000	2.482685  
439.500000	2.504444  
440.000000	2.550031  
440.500000	2.601187  
441.000000	2.650928  
441.500000	2.696494  
442.000000	2.758419  
442.500000	2.799153  
443.000000	2.826133  
443.500000	2.833741  
444.000000	2.832618  
444.500000	2.840815  

