PE FL                   SPECTRUM    ASCII       PEDS        1.60        
  -1
PPEF93~1
23/10/10
16:19:48.00
23/10/10
16:19:48.00


444.500000
1









LS55
15.00
5.00
5.00
SCAN
1
20
100
100
0
500
0
2
0
1
7
ON
500 450 
1 0 0
#HDR
-1
-1
#GR
NM

0.00002384185791015625
0.0
250.000000
0.500000
390
8
4.426084
-4.165965
#DATA
250.000000	-0.000000 
250.500000	-0.690014 
251.000000	-1.368754 
251.500000	-1.712831 
252.000000	-1.718990 
252.500000	-1.426492 
253.000000	-0.952600 
253.500000	-0.173923 
254.000000	0.288372  
254.500000	0.437742  
255.000000	0.460359  
255.500000	-0.282751 
256.000000	-1.258632 
256.500000	-1.955003 
257.000000	-2.347310 
257.500000	-2.422823 
258.000000	-1.975392 
258.500000	-1.537991 
259.000000	-1.020875 
259.500000	-0.538295 
260.000000	-0.824524 
260.500000	-1.553011 
261.000000	-2.298993 
261.500000	-3.118507 
262.000000	-3.924769 
262.500000	-4.165965 
263.000000	-4.038368 
263.500000	-3.392022 
264.000000	-2.735408 
264.500000	-2.277830 
265.000000	-2.031275 
265.500000	-1.627514 
266.000000	-1.407866 
266.500000	-1.398535 
267.000000	-1.231677 
267.500000	-0.815153 
268.000000	-0.168564 
268.500000	0.227641  
269.000000	0.436255  
269.500000	0.202719  
270.000000	0.002558  
270.500000	-0.277262 
271.000000	-0.848721 
271.500000	-1.519522 
272.000000	-2.013201 
272.500000	-2.305455 
273.000000	-2.274426 
273.500000	-2.094068 
274.000000	-2.090518 
274.500000	-2.036636 
275.000000	-1.911104 
275.500000	-1.940077 
276.000000	-1.986782 
276.500000	-2.044494 
277.000000	-2.330777 
277.500000	-2.609797 
278.000000	-2.981552 
278.500000	-3.269778 
279.000000	-3.440198 
279.500000	-3.550334 
280.000000	-3.726160 
280.500000	-3.667238 
281.000000	-3.448717 
281.500000	-3.342643 
282.000000	-3.304562 
282.500000	-3.488998 
283.000000	-3.726488 
283.500000	-3.715844 
284.000000	-3.720788 
284.500000	-3.850600 
285.000000	-3.742076 
285.500000	-3.415610 
286.000000	-3.024026 
286.500000	-2.620296 
287.000000	-2.411299 
287.500000	-2.393127 
288.000000	-2.342647 
288.500000	-2.459694 
289.000000	-2.738126 
289.500000	-2.850245 
290.000000	-2.642003 
290.500000	-2.319678 
291.000000	-2.039573 
291.500000	-1.857828 
292.000000	-1.657193 
292.500000	-1.517155 
293.000000	-1.492230 
293.500000	-1.752196 
294.000000	-2.142677 
294.500000	-2.340017 
295.000000	-2.293355 
295.500000	-2.246747 
296.000000	-2.244564 
296.500000	-1.965521 
297.000000	-1.614614 
297.500000	-1.462773 
298.000000	-1.468635 
298.500000	-1.656611 
299.000000	-1.924290 
299.500000	-2.248682 
300.000000	-2.644646 
300.500000	-2.956821 
301.000000	-3.018873 
301.500000	-2.894032 
302.000000	-2.838570 
302.500000	-2.919473 
303.000000	-2.955215 
303.500000	-2.994036 
304.000000	-3.171340 
304.500000	-3.358561 
305.000000	-3.452366 
305.500000	-3.212416 
306.000000	-2.726100 
306.500000	-2.169706 
307.000000	-1.857889 
307.500000	-1.631554 
308.000000	-1.457759 
308.500000	-1.444921 
309.000000	-1.639871 
309.500000	-2.013676 
310.000000	-2.264187 
310.500000	-2.213500 
311.000000	-1.859768 
311.500000	-1.357056 
312.000000	-0.806614 
312.500000	-0.234590 
313.000000	0.427860  
313.500000	0.880041  
314.000000	1.135015  
314.500000	1.126834  
315.000000	1.293565  
315.500000	1.425087  
316.000000	1.440314  
316.500000	1.492459  
317.000000	1.559784  
317.500000	2.007475  
318.000000	2.272800  
318.500000	2.534091  
319.000000	2.509295  
319.500000	2.703010  
320.000000	2.809724  
320.500000	2.620418  
321.000000	2.391398  
321.500000	2.075401  
322.000000	2.104362  
322.500000	2.191215  
323.000000	2.437780  
323.500000	2.562871  
324.000000	2.936836  
324.500000	3.317196  
325.000000	3.449595  
325.500000	3.437757  
326.000000	3.351575  
326.500000	3.290330  
327.000000	3.371110  
327.500000	3.550767  
328.000000	3.649339  
328.500000	3.738465  
329.000000	3.645861  
329.500000	3.381476  
330.000000	3.005086  
330.500000	2.703680  
331.000000	2.378604  
331.500000	2.222740  
332.000000	2.291415  
332.500000	2.521789  
333.000000	2.882093  
333.500000	3.197973  
334.000000	3.343460  
334.500000	3.445634  
335.000000	3.600353  
335.500000	3.555633  
336.000000	3.555845  
336.500000	3.523479  
337.000000	3.456751  
337.500000	3.457290  
338.000000	3.435021  
338.500000	3.197528  
339.000000	3.027156  
339.500000	3.137386  
340.000000	3.184446  
340.500000	3.357203  
341.000000	3.542970  
341.500000	3.561327  
342.000000	3.584034  
342.500000	3.440869  
343.000000	3.076478  
343.500000	2.531945  
344.000000	2.264144  
344.500000	2.102444  
345.000000	2.171834  
345.500000	2.429921  
346.000000	2.666845  
346.500000	3.004660  
347.000000	3.315435  
347.500000	3.522676  
348.000000	3.481431  
348.500000	3.403892  
349.000000	3.418923  
349.500000	3.485857  
350.000000	3.728209  
350.500000	3.947777  
351.000000	4.146550  
351.500000	4.273173  
352.000000	4.426084  
352.500000	4.419630  
353.000000	4.220974  
353.500000	3.953194  
354.000000	3.533072  
354.500000	3.164829  
355.000000	2.774071  
355.500000	2.391321  
356.000000	2.114484  
356.500000	2.124834  
357.000000	2.275499  
357.500000	2.550181  
358.000000	2.929564  
358.500000	3.246318  
359.000000	3.516187  
359.500000	3.666599  
360.000000	3.763672  
360.500000	3.749469  
361.000000	3.889615  
361.500000	3.996223  
362.000000	4.050276  
362.500000	4.048547  
363.000000	4.031694  
363.500000	3.943470  
364.000000	3.777489  
364.500000	3.633983  
365.000000	3.469938  
365.500000	3.488899  
366.000000	3.585379  
366.500000	3.701886  
367.000000	3.751463  
367.500000	3.780665  
368.000000	3.755548  
368.500000	3.660040  
369.000000	3.546080  
369.500000	3.396895  
370.000000	3.293984  
370.500000	3.266619  
371.000000	3.386075  
371.500000	3.519979  
372.000000	3.700716  
372.500000	3.901418  
373.000000	4.091606  
373.500000	4.206310  
374.000000	4.301699  
374.500000	4.299866  
375.000000	4.253879  
375.500000	4.190281  
376.000000	4.122223  
376.500000	4.103770  
377.000000	4.141681  
377.500000	4.209387  
378.000000	4.192537  
378.500000	4.220151  
379.000000	4.170664  
379.500000	4.080031  
380.000000	3.914808  
380.500000	3.694231  
381.000000	3.554400  
381.500000	3.484000  
382.000000	3.501479  
382.500000	3.523329  
383.000000	3.637878  
383.500000	3.744511  
384.000000	3.905685  
384.500000	4.055010  
385.000000	4.099080  
385.500000	4.114637  
386.000000	4.097475  
386.500000	4.062392  
387.000000	3.965102  
387.500000	3.897602  
388.000000	3.807610  
388.500000	3.718956  
389.000000	3.697113  
389.500000	3.653714  
390.000000	3.645788  
390.500000	3.667155  
391.000000	3.730803  
391.500000	3.826631  
392.000000	3.941187  
392.500000	3.992519  
393.000000	3.999488  
393.500000	3.965537  
394.000000	3.872618  
394.500000	3.761151  
395.000000	3.629556  
395.500000	3.497894  
396.000000	3.433974  
396.500000	3.433248  
397.000000	3.445218  
397.500000	3.478017  
398.000000	3.525593  
398.500000	3.575267  
399.000000	3.633731  
399.500000	3.665072  
400.000000	3.655671  
400.500000	3.641301  
401.000000	3.644256  
401.500000	3.582350  
402.000000	3.474663  
402.500000	3.342439  
403.000000	3.227193  
403.500000	3.151856  
404.000000	3.104574  
404.500000	3.104741  
405.000000	3.153242  
405.500000	3.274587  
406.000000	3.373693  
406.500000	3.433278  
407.000000	3.443591  
407.500000	3.407979  
408.000000	3.356235  
408.500000	3.291892  
409.000000	3.239885  
409.500000	3.232153  
410.000000	3.270493  
410.500000	3.291323  
411.000000	3.307723  
411.500000	3.309757  
412.000000	3.312030  
412.500000	3.297363  
413.000000	3.275610  
413.500000	3.247296  
414.000000	3.258145  
414.500000	3.282773  
415.000000	3.294920  
415.500000	3.289182  
416.000000	3.296062  
416.500000	3.344722  
417.000000	3.365501  
417.500000	3.380031  
418.000000	3.370484  
418.500000	3.347362  
419.000000	3.315273  
419.500000	3.259379  
420.000000	3.139604  
420.500000	3.011032  
421.000000	2.911068  
421.500000	2.804463  
422.000000	2.719703  
422.500000	2.638536  
423.000000	2.553230  
423.500000	2.489622  
424.000000	2.431496  
424.500000	2.329780  
425.000000	2.255279  
425.500000	2.205230  
426.000000	2.175589  
426.500000	2.183060  
427.000000	2.208111  
427.500000	2.241180  
428.000000	2.282421  
428.500000	2.327003  
429.000000	2.319044  
429.500000	2.287718  
430.000000	2.250522  
430.500000	2.217104  
431.000000	2.199146  
431.500000	2.197762  
432.000000	2.219954  
432.500000	2.251445  
433.000000	2.280440  
433.500000	2.272280  
434.000000	2.227512  
434.500000	2.181131  
435.000000	2.136457  
435.500000	2.095707  
436.000000	2.077311  
436.500000	2.096591  
437.000000	2.130255  
437.500000	2.168929  
438.000000	2.202164  
438.500000	2.217316  
439.000000	2.238755  
439.500000	2.281716  
440.000000	2.335482  
440.500000	2.397854  
441.000000	2.456505  
441.500000	2.518418  
442.000000	2.564747  
442.500000	2.598845  
443.000000	2.608741  
443.500000	2.597891  
444.000000	2.596903  
444.500000	2.605696  

