PE FL                   SPECTRUM    ASCII       PEDS        1.60        
  -1
PP00A3~1
23/10/10
16:21:09.00
23/10/10
16:21:09.00


444.500000
1









LS55
25.00
5.00
5.00
SCAN
1
20
100
100
0
500
0
2
0
1
7
ON
500 450 
1 0 0
#HDR
-1
-1
#GR
NM

0.00002384185791015625
0.0
250.000000
0.500000
390
8
6.120493
-4.461830
#DATA
250.000000	5.504000  
250.500000	2.118455  
251.000000	-0.576966 
251.500000	-2.511934 
252.000000	-4.097568 
252.500000	-4.461830 
253.000000	-4.235709 
253.500000	-3.592138 
254.000000	-2.770176 
254.500000	-2.072333 
255.000000	-1.551453 
255.500000	-0.927672 
256.000000	-0.214765 
256.500000	-0.277953 
257.000000	-0.141429 
257.500000	-0.178361 
258.000000	-0.385610 
258.500000	-0.752823 
259.000000	-1.303684 
259.500000	-2.155040 
260.000000	-2.609736 
260.500000	-2.554408 
261.000000	-2.690101 
261.500000	-2.453753 
262.000000	-2.008933 
262.500000	-1.348429 
263.000000	-0.856405 
263.500000	-0.389714 
264.000000	-0.534981 
264.500000	-0.855846 
265.000000	-1.203575 
265.500000	-1.581664 
266.000000	-1.865169 
266.500000	-2.171726 
267.000000	-2.245462 
267.500000	-2.416225 
268.000000	-2.461262 
268.500000	-2.785155 
269.000000	-3.081304 
269.500000	-3.450781 
270.000000	-3.499871 
270.500000	-3.436529 
271.000000	-3.261907 
271.500000	-2.703582 
272.000000	-1.966518 
272.500000	-1.244241 
273.000000	-0.746699 
273.500000	-0.221883 
274.000000	0.192664  
274.500000	0.572705  
275.000000	0.689862  
275.500000	0.497696  
276.000000	0.085948  
276.500000	-0.006096 
277.000000	0.001492  
277.500000	-0.239637 
278.000000	-0.438065 
278.500000	-0.642060 
279.000000	-0.601346 
279.500000	-0.870800 
280.000000	-0.986056 
280.500000	-1.435285 
281.000000	-1.486447 
281.500000	-1.130777 
282.000000	-0.750600 
282.500000	-0.322711 
283.000000	0.103194  
283.500000	0.543017  
284.000000	0.274758  
284.500000	0.109913  
285.000000	-0.659131 
285.500000	-1.488804 
286.000000	-2.185367 
286.500000	-2.653594 
287.000000	-2.663732 
287.500000	-2.587487 
288.000000	-2.041388 
288.500000	-1.746868 
289.000000	-1.186255 
289.500000	-1.052296 
290.000000	-1.153761 
290.500000	-1.560907 
291.000000	-2.045757 
291.500000	-2.399671 
292.000000	-2.880479 
292.500000	-3.240193 
293.000000	-3.395381 
293.500000	-3.159854 
294.000000	-2.753706 
294.500000	-2.136934 
295.000000	-1.594393 
295.500000	-1.140535 
296.000000	-0.618086 
296.500000	-0.447439 
297.000000	-0.563662 
297.500000	-0.852921 
298.000000	-1.326070 
298.500000	-1.855119 
299.000000	-2.321409 
299.500000	-2.583033 
300.000000	-2.727065 
300.500000	-2.804291 
301.000000	-2.601077 
301.500000	-2.245653 
302.000000	-1.780613 
302.500000	-1.421621 
303.000000	-1.083257 
303.500000	-1.037535 
304.000000	-0.920427 
304.500000	-0.788414 
305.000000	-1.025092 
305.500000	-1.344625 
306.000000	-1.794873 
306.500000	-2.148665 
307.000000	-2.403437 
307.500000	-2.386319 
308.000000	-2.428011 
308.500000	-2.118278 
309.000000	-1.041144 
309.500000	-0.009728 
310.000000	1.058149  
310.500000	2.037748  
311.000000	2.704759  
311.500000	3.088582  
312.000000	3.265306  
312.500000	2.923960  
313.000000	2.531229  
313.500000	2.516632  
314.000000	2.619551  
314.500000	2.878517  
315.000000	3.490509  
315.500000	4.206500  
316.000000	4.935117  
316.500000	5.621636  
317.000000	5.878548  
317.500000	5.949130  
318.000000	6.120493  
318.500000	6.059648  
319.000000	5.487557  
319.500000	5.181033  
320.000000	4.917045  
320.500000	4.660996  
321.000000	4.642192  
321.500000	4.622785  
322.000000	4.710873  
322.500000	5.012733  
323.000000	5.312707  
323.500000	5.351581  
324.000000	5.392667  
324.500000	5.322152  
325.000000	5.234771  
325.500000	5.309512  
326.000000	5.490024  
326.500000	5.632570  
327.000000	5.780838  
327.500000	5.881597  
328.000000	5.917485  
328.500000	5.915362  
329.000000	5.745888  
329.500000	5.530450  
330.000000	5.340605  
330.500000	5.181062  
331.000000	5.061763  
331.500000	4.853376  
332.000000	4.528346  
332.500000	4.320388  
333.000000	4.077827  
333.500000	3.787430  
334.000000	3.633135  
334.500000	3.710664  
335.000000	3.864376  
335.500000	4.121934  
336.000000	4.394774  
336.500000	4.625341  
337.000000	4.710528  
337.500000	4.616489  
338.000000	4.363031  
338.500000	4.026912  
339.000000	3.848956  
339.500000	3.793753  
340.000000	3.805278  
340.500000	3.946104  
341.000000	4.159632  
341.500000	4.312750  
342.000000	4.494621  
342.500000	4.609776  
343.000000	4.603122  
343.500000	4.493287  
344.000000	4.456356  
344.500000	4.503668  
345.000000	4.584298  
345.500000	4.728617  
346.000000	4.748547  
346.500000	4.812058  
347.000000	4.800154  
347.500000	4.845876  
348.000000	4.766076  
348.500000	4.703353  
349.000000	4.742257  
349.500000	4.787909  
350.000000	4.958601  
350.500000	4.966056  
351.000000	4.928069  
351.500000	4.750002  
352.000000	4.660015  
352.500000	4.589862  
353.000000	4.520043  
353.500000	4.544096  
354.000000	4.613283  
354.500000	4.874312  
355.000000	5.135873  
355.500000	5.371142  
356.000000	5.517336  
356.500000	5.605777  
357.000000	5.622798  
357.500000	5.590962  
358.000000	5.503194  
358.500000	5.404497  
359.000000	5.325183  
359.500000	5.190021  
360.000000	4.990372  
360.500000	4.814190  
361.000000	4.704560  
361.500000	4.592238  
362.000000	4.477766  
362.500000	4.419119  
363.000000	4.554266  
363.500000	4.768473  
364.000000	4.982768  
364.500000	5.187937  
365.000000	5.415659  
365.500000	5.629168  
366.000000	5.728297  
366.500000	5.636551  
367.000000	5.366264  
367.500000	5.116727  
368.000000	4.956738  
368.500000	4.852542  
369.000000	4.848041  
369.500000	4.951031  
370.000000	5.124327  
370.500000	5.357631  
371.000000	5.499954  
371.500000	5.519272  
372.000000	5.464271  
372.500000	5.351521  
373.000000	5.200439  
373.500000	5.077673  
374.000000	5.010124  
374.500000	4.941904  
375.000000	4.955547  
375.500000	4.972727  
376.000000	5.040833  
376.500000	5.136743  
377.000000	5.266572  
377.500000	5.442411  
378.000000	5.651073  
378.500000	5.860019  
379.000000	5.948534  
379.500000	5.982549  
380.000000	5.919523  
380.500000	5.807753  
381.000000	5.629029  
381.500000	5.431685  
382.000000	5.277039  
382.500000	5.107822  
383.000000	4.978118  
383.500000	4.825922  
384.000000	4.704903  
384.500000	4.665220  
385.000000	4.691622  
385.500000	4.695849  
386.000000	4.728850  
386.500000	4.842294  
387.000000	5.006312  
387.500000	5.175088  
388.000000	5.300236  
388.500000	5.341290  
389.000000	5.363258  
389.500000	5.331130  
390.000000	5.206569  
390.500000	5.036256  
391.000000	4.853735  
391.500000	4.752259  
392.000000	4.711055  
392.500000	4.764849  
393.000000	4.824828  
393.500000	4.945845  
394.000000	5.033962  
394.500000	5.126471  
395.000000	5.157334  
395.500000	5.073362  
396.000000	4.949966  
396.500000	4.783937  
397.000000	4.623888  
397.500000	4.431685  
398.000000	4.269427  
398.500000	4.076665  
399.000000	3.972182  
399.500000	3.939453  
400.000000	3.935632  
400.500000	3.981726  
401.000000	4.069985  
401.500000	4.215980  
402.000000	4.371479  
402.500000	4.508366  
403.000000	4.605952  
403.500000	4.716436  
404.000000	4.844252  
404.500000	4.985049  
405.000000	5.097318  
405.500000	5.157506  
406.000000	5.154162  
406.500000	5.120080  
407.000000	4.976304  
407.500000	4.773013  
408.000000	4.553568  
408.500000	4.356615  
409.000000	4.215762  
409.500000	4.132722  
410.000000	4.145872  
410.500000	4.201902  
411.000000	4.341911  
411.500000	4.439837  
412.000000	4.499120  
412.500000	4.538430  
413.000000	4.484913  
413.500000	4.369392  
414.000000	4.187201  
414.500000	4.069315  
415.000000	3.970397  
415.500000	3.949962  
416.000000	3.912695  
416.500000	3.870060  
417.000000	3.915409  
417.500000	3.975257  
418.000000	3.987688  
418.500000	3.904221  
419.000000	3.812379  
419.500000	3.685755  
420.000000	3.604734  
420.500000	3.470402  
421.000000	3.308682  
421.500000	3.233875  
422.000000	3.219629  
422.500000	3.236400  
423.000000	3.266381  
423.500000	3.330561  
424.000000	3.397966  
424.500000	3.510268  
425.000000	3.545269  
425.500000	3.477195  
426.000000	3.385782  
426.500000	3.303201  
427.000000	3.230835  
427.500000	3.146875  
428.000000	3.108906  
428.500000	3.097301  
429.000000	3.130425  
429.500000	3.165227  
430.000000	3.182989  
430.500000	3.188417  
431.000000	3.188970  
431.500000	3.202453  
432.000000	3.194107  
432.500000	3.172723  
433.000000	3.137280  
433.500000	3.124664  
434.000000	3.140501  
434.500000	3.173732  
435.000000	3.188677  
435.500000	3.178737  
436.000000	3.171303  
436.500000	3.164560  
437.000000	3.155059  
437.500000	3.114334  
438.000000	3.059346  
438.500000	3.004388  
439.000000	2.988857  
439.500000	2.971681  
440.000000	2.961573  
440.500000	2.955164  
441.000000	2.982474  
441.500000	3.020508  
442.000000	3.053369  
442.500000	3.092913  
443.000000	3.145627  
443.500000	3.217797  
444.000000	3.273102  
444.500000	3.317444  

