PE FL                   SPECTRUM    ASCII       PEDS        1.60        
  -1
PPDF93~1
23/10/10
16:19:08.00
23/10/10
16:19:08.00


444.500000
1









LS55
10.00
5.00
5.00
SCAN
1
20
100
100
0
500
0
2
0
1
7
ON
500 450 
1 0 0
#HDR
-1
-1
#GR
NM

0.00002384185791015625
0.0
250.000000
0.500000
390
8
3.952603
-5.000000
#DATA
250.000000	-5.000000 
250.500000	-4.453710 
251.000000	-3.759404 
251.500000	-3.400451 
252.000000	-3.114324 
252.500000	-2.898622 
253.000000	-2.918522 
253.500000	-3.157069 
254.000000	-3.281544 
254.500000	-3.886825 
255.000000	-4.332939 
255.500000	-4.387476 
256.000000	-4.337722 
256.500000	-4.155764 
257.000000	-3.976794 
257.500000	-3.437091 
258.000000	-2.680781 
258.500000	-1.669934 
259.000000	-1.202319 
259.500000	-0.805904 
260.000000	-0.561488 
260.500000	-0.142816 
261.000000	0.172563  
261.500000	-0.199024 
262.000000	-0.456603 
262.500000	-0.626368 
263.000000	-0.752209 
263.500000	-1.170951 
264.000000	-1.391037 
264.500000	-1.767506 
265.000000	-1.753984 
265.500000	-1.496135 
266.000000	-1.822557 
266.500000	-2.132909 
267.000000	-2.554427 
267.500000	-2.693394 
268.000000	-2.755433 
268.500000	-2.314198 
269.000000	-1.909278 
269.500000	-1.272941 
270.000000	-0.692942 
270.500000	-0.402476 
271.000000	-0.327988 
271.500000	-0.765021 
272.000000	-1.044584 
272.500000	-1.302458 
273.000000	-1.332421 
273.500000	-1.352885 
274.000000	-1.023875 
274.500000	-0.836202 
275.000000	-0.687074 
275.500000	-0.712383 
276.000000	-1.485349 
276.500000	-2.284818 
277.000000	-2.869384 
277.500000	-3.167294 
278.000000	-3.438300 
278.500000	-3.352611 
279.000000	-3.224901 
279.500000	-3.107420 
280.000000	-2.923970 
280.500000	-3.067196 
281.000000	-3.329838 
281.500000	-3.517634 
282.000000	-3.404215 
282.500000	-3.338605 
283.000000	-3.376076 
283.500000	-3.355358 
284.000000	-3.331592 
284.500000	-2.925143 
285.000000	-2.639484 
285.500000	-2.418265 
286.000000	-2.332939 
286.500000	-2.108670 
287.000000	-1.533766 
287.500000	-1.051332 
288.000000	-0.636954 
288.500000	-0.455447 
289.000000	-0.191533 
289.500000	-0.179360 
290.000000	-0.375520 
290.500000	-1.097454 
291.000000	-2.082943 
291.500000	-2.916768 
292.000000	-3.632297 
292.500000	-4.090549 
293.000000	-4.278303 
293.500000	-4.064022 
294.000000	-3.569024 
294.500000	-2.819834 
295.000000	-2.129393 
295.500000	-1.627207 
296.000000	-1.476113 
296.500000	-1.478666 
297.000000	-1.683340 
297.500000	-1.818339 
298.000000	-1.977134 
298.500000	-2.044740 
299.000000	-2.057550 
299.500000	-1.946703 
300.000000	-1.486644 
300.500000	-1.143960 
301.000000	-0.522246 
301.500000	-0.048167 
302.000000	0.330343  
302.500000	0.553679  
303.000000	0.857623  
303.500000	0.881124  
304.000000	0.641994  
304.500000	0.221350  
305.000000	-0.369865 
305.500000	-0.722360 
306.000000	-1.113764 
306.500000	-1.696387 
307.000000	-2.171597 
307.500000	-2.148843 
308.000000	-1.822943 
308.500000	-1.363782 
309.000000	-1.079663 
309.500000	-0.690198 
310.000000	-0.255644 
310.500000	0.175760  
311.000000	0.096857  
311.500000	-0.192355 
312.000000	-0.440369 
312.500000	-0.474393 
313.000000	-0.251844 
313.500000	-0.114956 
314.000000	0.242127  
314.500000	0.660031  
315.000000	1.184974  
315.500000	1.311704  
316.000000	1.278188  
316.500000	1.169661  
317.000000	1.155683  
317.500000	1.217020  
318.000000	1.242572  
318.500000	1.437105  
319.000000	1.695610  
319.500000	2.042652  
320.000000	2.275116  
320.500000	2.300622  
321.000000	2.204449  
321.500000	2.176877  
322.000000	2.229626  
322.500000	2.155068  
323.000000	2.169608  
323.500000	2.352934  
324.000000	2.575649  
324.500000	2.746940  
325.000000	2.791630  
325.500000	2.614447  
326.000000	2.467443  
326.500000	2.345389  
327.000000	2.007277  
327.500000	1.536834  
328.000000	1.227473  
328.500000	1.044187  
329.000000	1.011894  
329.500000	1.277721  
330.000000	1.631315  
330.500000	2.154376  
331.000000	2.755887  
331.500000	3.286673  
332.000000	3.574020  
332.500000	3.632946  
333.000000	3.661679  
333.500000	3.512749  
334.000000	3.434364  
334.500000	3.466018  
335.000000	3.696335  
335.500000	3.843006  
336.000000	3.892817  
336.500000	3.752727  
337.000000	3.375220  
337.500000	2.866302  
338.000000	2.157020  
338.500000	1.341987  
339.000000	0.767855  
339.500000	0.600787  
340.000000	0.800638  
340.500000	1.247697  
341.000000	1.786727  
341.500000	2.415449  
342.000000	3.037516  
342.500000	3.483269  
343.000000	3.643599  
343.500000	3.723891  
344.000000	3.761951  
344.500000	3.743390  
345.000000	3.744488  
345.500000	3.643886  
346.000000	3.511329  
346.500000	3.271239  
347.000000	2.932168  
347.500000	2.420308  
348.000000	1.979893  
348.500000	1.620112  
349.000000	1.323403  
349.500000	1.261330  
350.000000	1.492084  
350.500000	1.948857  
351.000000	2.425157  
351.500000	2.871674  
352.000000	3.177716  
352.500000	3.485314  
353.000000	3.738025  
353.500000	3.807008  
354.000000	3.797744  
354.500000	3.809273  
355.000000	3.879624  
355.500000	3.867972  
356.000000	3.876143  
356.500000	3.847054  
357.000000	3.900042  
357.500000	3.952603  
358.000000	3.882529  
358.500000	3.801820  
359.000000	3.722196  
359.500000	3.650587  
360.000000	3.515642  
360.500000	3.305170  
361.000000	3.118923  
361.500000	3.110278  
362.000000	3.241345  
362.500000	3.304513  
363.000000	3.435049  
363.500000	3.631885  
364.000000	3.766482  
364.500000	3.807914  
365.000000	3.696888  
365.500000	3.488922  
366.000000	3.349409  
366.500000	3.309809  
367.000000	3.286272  
367.500000	3.282264  
368.000000	3.395536  
368.500000	3.501789  
369.000000	3.627406  
369.500000	3.691606  
370.000000	3.663278  
370.500000	3.657037  
371.000000	3.661015  
371.500000	3.692258  
372.000000	3.655995  
372.500000	3.645689  
373.000000	3.655063  
373.500000	3.648634  
374.000000	3.646350  
374.500000	3.641032  
375.000000	3.593009  
375.500000	3.548825  
376.000000	3.551548  
376.500000	3.514689  
377.000000	3.465621  
377.500000	3.398701  
378.000000	3.306618  
378.500000	3.261978  
379.000000	3.305286  
379.500000	3.358304  
380.000000	3.402699  
380.500000	3.446417  
381.000000	3.477279  
381.500000	3.468083  
382.000000	3.345622  
382.500000	3.151617  
383.000000	2.949290  
383.500000	2.803966  
384.000000	2.755069  
384.500000	2.805276  
385.000000	2.905900  
385.500000	3.061309  
386.000000	3.305828  
386.500000	3.501719  
387.000000	3.667413  
387.500000	3.767352  
388.000000	3.808083  
388.500000	3.799520  
389.000000	3.760079  
389.500000	3.698394  
390.000000	3.639311  
390.500000	3.616237  
391.000000	3.583513  
391.500000	3.582417  
392.000000	3.595978  
392.500000	3.667453  
393.000000	3.690902  
393.500000	3.709840  
394.000000	3.695076  
394.500000	3.654130  
395.000000	3.603891  
395.500000	3.553893  
396.000000	3.505565  
396.500000	3.452800  
397.000000	3.468767  
397.500000	3.497041  
398.000000	3.523541  
398.500000	3.537222  
399.000000	3.524076  
399.500000	3.495795  
400.000000	3.457755  
400.500000	3.399551  
401.000000	3.328945  
401.500000	3.267616  
402.000000	3.216932  
402.500000	3.180481  
403.000000	3.151699  
403.500000	3.124395  
404.000000	3.096856  
404.500000	3.073497  
405.000000	3.063839  
405.500000	3.065902  
406.000000	3.085099  
406.500000	3.122350  
407.000000	3.162973  
407.500000	3.215687  
408.000000	3.265361  
408.500000	3.316661  
409.000000	3.359051  
409.500000	3.414510  
410.000000	3.449998  
410.500000	3.473062  
411.000000	3.480998  
411.500000	3.477660  
412.000000	3.452912  
412.500000	3.390167  
413.000000	3.301171  
413.500000	3.189746  
414.000000	3.121276  
414.500000	3.062367  
415.000000	3.037072  
415.500000	3.050235  
416.000000	3.082939  
416.500000	3.126243  
417.000000	3.111796  
417.500000	3.055979  
418.000000	2.942439  
418.500000	2.829511  
419.000000	2.699025  
419.500000	2.560196  
420.000000	2.469997  
420.500000	2.410173  
421.000000	2.398649  
421.500000	2.413699  
422.000000	2.451764  
422.500000	2.471840  
423.000000	2.480704  
423.500000	2.474723  
424.000000	2.438056  
424.500000	2.418451  
425.000000	2.379381  
425.500000	2.318092  
426.000000	2.275566  
426.500000	2.265143  
427.000000	2.247719  
427.500000	2.252797  
428.000000	2.273332  
428.500000	2.308026  
429.000000	2.366621  
429.500000	2.427912  
430.000000	2.454145  
430.500000	2.479713  
431.000000	2.512713  
431.500000	2.527515  
432.000000	2.545609  
432.500000	2.535370  
433.000000	2.508177  
433.500000	2.467050  
434.000000	2.415480  
434.500000	2.346752  
435.000000	2.270858  
435.500000	2.219844  
436.000000	2.178643  
436.500000	2.206920  
437.000000	2.263635  
437.500000	2.363378  
438.000000	2.472705  
438.500000	2.544676  
439.000000	2.589212  
439.500000	2.581581  
440.000000	2.554576  
440.500000	2.473842  
441.000000	2.387403  
441.500000	2.303069  
442.000000	2.238162  
442.500000	2.238124  
443.000000	2.257597  
443.500000	2.299803  
444.000000	2.329643  
444.500000	2.377325  

