PE FL                   SPECTRUM    ASCII       PEDS        1.60        
  -1
PP10A3~1
23/10/10
16:21:50.00
23/10/10
16:21:50.00


444.500000
1









LS55
30.00
5.00
5.00
SCAN
1
20
100
100
0
500
0
2
0
1
7
ON
500 450 
1 0 0
#HDR
-1
-1
#GR
NM

0.00002384185791015625
0.0
250.000000
0.500000
390
8
7.386085
-5.000000
#DATA
250.000000	-5.000000 
250.500000	-4.325463 
251.000000	-3.521727 
251.500000	-2.895338 
252.000000	-2.238851 
252.500000	-1.783417 
253.000000	-1.479185 
253.500000	-1.469360 
254.000000	-1.655697 
254.500000	-1.951966 
255.000000	-2.411418 
255.500000	-2.810956 
256.000000	-3.089561 
256.500000	-3.098038 
257.000000	-3.061587 
257.500000	-2.980305 
258.000000	-2.594721 
258.500000	-2.229921 
259.000000	-1.803066 
259.500000	-2.168308 
260.000000	-2.372373 
260.500000	-2.126791 
261.000000	-1.551467 
261.500000	-0.923026 
262.000000	-0.550469 
262.500000	0.117615  
263.000000	0.585769  
263.500000	1.243104  
264.000000	0.793930  
264.500000	0.079917  
265.000000	-0.487650 
265.500000	-0.853655 
266.000000	-0.959030 
266.500000	-1.335555 
267.000000	-1.571631 
267.500000	-1.794423 
268.000000	-1.402736 
268.500000	-1.587333 
269.000000	-1.881325 
269.500000	-1.964869 
270.000000	-1.789774 
270.500000	-1.458705 
271.000000	-1.086602 
271.500000	-0.930976 
272.000000	-1.065662 
272.500000	-1.280447 
273.000000	-1.555420 
273.500000	-1.952864 
274.000000	-2.343557 
274.500000	-2.582066 
275.000000	-2.780841 
275.500000	-2.729685 
276.000000	-3.020062 
276.500000	-3.308998 
277.000000	-3.568850 
277.500000	-3.696227 
278.000000	-3.709783 
278.500000	-3.620504 
279.000000	-3.461801 
279.500000	-3.443187 
280.000000	-3.138106 
280.500000	-3.091886 
281.000000	-3.117229 
281.500000	-3.122214 
282.000000	-3.079995 
282.500000	-2.887615 
283.000000	-2.617614 
283.500000	-2.428202 
284.000000	-2.449386 
284.500000	-2.376857 
285.000000	-2.358865 
285.500000	-2.527488 
286.000000	-2.690585 
286.500000	-2.974554 
287.000000	-3.204196 
287.500000	-3.259339 
288.000000	-3.201695 
288.500000	-3.100592 
289.000000	-2.935538 
289.500000	-2.696674 
290.000000	-2.518187 
290.500000	-2.269560 
291.000000	-2.216299 
291.500000	-2.202097 
292.000000	-2.345799 
292.500000	-2.495733 
293.000000	-2.597524 
293.500000	-2.667825 
294.000000	-2.899835 
294.500000	-2.983318 
295.000000	-2.972139 
295.500000	-3.054687 
296.000000	-2.904876 
296.500000	-2.794575 
297.000000	-2.796826 
297.500000	-2.768921 
298.000000	-2.542271 
298.500000	-2.364881 
299.000000	-2.027845 
299.500000	-1.797273 
300.000000	-1.794981 
300.500000	-1.626001 
301.000000	-1.386789 
301.500000	-1.384298 
302.000000	-1.655828 
302.500000	-1.783344 
303.000000	-1.909019 
303.500000	-1.828081 
304.000000	-1.762658 
304.500000	-1.746835 
305.000000	-1.370103 
305.500000	-0.672503 
306.000000	-0.007721 
306.500000	0.357841  
307.000000	0.768577  
307.500000	1.054696  
308.000000	1.301207  
308.500000	1.287772  
309.000000	0.965445  
309.500000	0.614291  
310.000000	0.109798  
310.500000	-0.354248 
311.000000	-0.921200 
311.500000	-1.099593 
312.000000	-1.084322 
312.500000	-0.681531 
313.000000	0.071820  
313.500000	0.941621  
314.000000	1.940325  
314.500000	2.654062  
315.000000	3.243193  
315.500000	3.598691  
316.000000	3.755287  
316.500000	3.642512  
317.000000	3.604143  
317.500000	3.798605  
318.000000	4.267170  
318.500000	5.011043  
319.000000	5.705212  
319.500000	6.271795  
320.000000	6.880549  
320.500000	7.247646  
321.000000	7.362666  
321.500000	7.311131  
322.000000	7.065745  
322.500000	6.789950  
323.000000	6.753659  
323.500000	6.770805  
324.000000	6.610785  
324.500000	6.559436  
325.000000	6.503972  
325.500000	6.559931  
326.000000	6.582359  
326.500000	6.414846  
327.000000	6.002823  
327.500000	5.870974  
328.000000	5.940645  
328.500000	5.869250  
329.000000	5.800348  
329.500000	5.734405  
330.000000	5.943594  
330.500000	6.233511  
331.000000	6.493007  
331.500000	6.442083  
332.000000	6.425900  
332.500000	6.485669  
333.000000	6.477405  
333.500000	6.371981  
334.000000	6.162358  
334.500000	5.980329  
335.000000	5.745270  
335.500000	5.563615  
336.000000	5.294908  
336.500000	5.086433  
337.000000	5.129697  
337.500000	5.167903  
338.000000	5.305727  
338.500000	5.506655  
339.000000	5.613516  
339.500000	5.675039  
340.000000	5.674971  
340.500000	5.639534  
341.000000	5.534740  
341.500000	5.546599  
342.000000	5.495634  
342.500000	5.562780  
343.000000	5.602933  
343.500000	5.502021  
344.000000	5.300725  
344.500000	5.120841  
345.000000	5.005370  
345.500000	5.023997  
346.000000	5.149939  
346.500000	5.331332  
347.000000	5.710721  
347.500000	6.036935  
348.000000	6.244521  
348.500000	6.254504  
349.000000	6.078156  
349.500000	5.846889  
350.000000	5.620491  
350.500000	5.300205  
351.000000	4.984259  
351.500000	4.814450  
352.000000	4.639721  
352.500000	4.609062  
353.000000	4.629537  
353.500000	4.715470  
354.000000	4.856937  
354.500000	5.132863  
355.000000	5.472024  
355.500000	5.843962  
356.000000	6.165219  
356.500000	6.291904  
357.000000	6.322730  
357.500000	6.266168  
358.000000	6.230100  
358.500000	6.163105  
359.000000	6.111582  
359.500000	6.176807  
360.000000	6.247507  
360.500000	6.393624  
361.000000	6.478908  
361.500000	6.491987  
362.000000	6.433035  
362.500000	6.459177  
363.000000	6.481673  
363.500000	6.540987  
364.000000	6.741031  
364.500000	6.951104  
365.000000	7.192893  
365.500000	7.386085  
366.000000	7.381929  
366.500000	7.239782  
367.000000	7.048435  
367.500000	6.811066  
368.000000	6.563230  
368.500000	6.436958  
369.000000	6.316408  
369.500000	6.208821  
370.000000	6.238820  
370.500000	6.278089  
371.000000	6.337802  
371.500000	6.453335  
372.000000	6.599943  
372.500000	6.758259  
373.000000	6.976802  
373.500000	7.155048  
374.000000	7.089868  
374.500000	7.039529  
375.000000	6.917782  
375.500000	6.739198  
376.000000	6.572091  
376.500000	6.446361  
377.000000	6.349099  
377.500000	6.320448  
378.000000	6.358551  
378.500000	6.294747  
379.000000	6.268634  
379.500000	6.228121  
380.000000	6.188663  
380.500000	6.167518  
381.000000	6.194277  
381.500000	6.268238  
382.000000	6.290313  
382.500000	6.327388  
383.000000	6.346768  
383.500000	6.346287  
384.000000	6.277108  
384.500000	6.219771  
385.000000	6.151086  
385.500000	6.071476  
386.000000	6.022770  
386.500000	5.975475  
387.000000	5.941069  
387.500000	5.971169  
388.000000	6.032940  
388.500000	6.104934  
389.000000	6.256325  
389.500000	6.419579  
390.000000	6.575344  
390.500000	6.637236  
391.000000	6.676274  
391.500000	6.605925  
392.000000	6.502223  
392.500000	6.371895  
393.000000	6.228392  
393.500000	6.118686  
394.000000	6.003395  
394.500000	6.025158  
395.000000	6.029046  
395.500000	6.103474  
396.000000	6.095283  
396.500000	6.036570  
397.000000	5.963055  
397.500000	5.860038  
398.000000	5.748139  
398.500000	5.557137  
399.000000	5.458694  
399.500000	5.412112  
400.000000	5.460778  
400.500000	5.483966  
401.000000	5.493266  
401.500000	5.549376  
402.000000	5.557676  
402.500000	5.539739  
403.000000	5.439511  
403.500000	5.315383  
404.000000	5.164448  
404.500000	5.055101  
405.000000	4.922758  
405.500000	4.829670  
406.000000	4.821670  
406.500000	4.803178  
407.000000	4.872235  
407.500000	5.047229  
408.000000	5.242834  
408.500000	5.381040  
409.000000	5.516927  
409.500000	5.580628  
410.000000	5.584913  
410.500000	5.491611  
411.000000	5.296153  
411.500000	5.118323  
412.000000	5.068195  
412.500000	5.103871  
413.000000	5.143312  
413.500000	5.214877  
414.000000	5.291979  
414.500000	5.325772  
415.000000	5.226742  
415.500000	4.946755  
416.000000	4.578792  
416.500000	4.307011  
417.000000	4.100551  
417.500000	3.945052  
418.000000	3.895738  
418.500000	3.983608  
419.000000	4.134644  
419.500000	4.283681  
420.000000	4.306076  
420.500000	4.240157  
421.000000	4.184082  
421.500000	4.085304  
422.000000	3.966955  
422.500000	3.919218  
423.000000	3.965487  
423.500000	4.073097  
424.000000	4.224104  
424.500000	4.315520  
425.000000	4.400971  
425.500000	4.464733  
426.000000	4.460747  
426.500000	4.397338  
427.000000	4.339118  
427.500000	4.295600  
428.000000	4.239486  
428.500000	4.158964  
429.000000	4.010138  
429.500000	3.900465  
430.000000	3.788566  
430.500000	3.658367  
431.000000	3.552386  
431.500000	3.497996  
432.000000	3.517995  
432.500000	3.583695  
433.000000	3.636377  
433.500000	3.652747  
434.000000	3.680583  
434.500000	3.685418  
435.000000	3.663518  
435.500000	3.627867  
436.000000	3.601608  
436.500000	3.612430  
437.000000	3.683340  
437.500000	3.760089  
438.000000	3.854918  
438.500000	3.958975  
439.000000	4.053569  
439.500000	4.116193  
440.000000	4.138504  
440.500000	4.119974  
441.000000	4.070326  
441.500000	4.053286  
442.000000	4.002790  
442.500000	3.983359  
443.000000	3.975910  
443.500000	4.013308  
444.000000	4.053256  
444.500000	4.083861  

