PE FL                   SPECTRUM    ASCII       PEDS        1.60        
  -1
PP20A3~1
23/10/10
16:22:30.00
23/10/10
16:22:30.00


444.500000
1









LS55
35.00
5.00
5.00
SCAN
1
20
100
100
0
500
0
2
0
1
7
ON
500 450 
1 0 0
#HDR
-1
-1
#GR
NM

0.00002384185791015625
0.0
250.000000
0.500000
390
8
9.841223
-3.911438
#DATA
250.000000	3.599999  
250.500000	1.707969  
251.000000	-0.143869 
251.500000	-1.488091 
252.000000	-2.619180 
252.500000	-3.545753 
253.000000	-3.890722 
253.500000	-3.770794 
254.000000	-3.624436 
254.500000	-3.294590 
255.000000	-2.962387 
255.500000	-3.067900 
256.000000	-2.887665 
256.500000	-2.966412 
257.000000	-2.931767 
257.500000	-2.767438 
258.000000	-2.427980 
258.500000	-2.167500 
259.000000	-1.843271 
259.500000	-1.560157 
260.000000	-1.752986 
260.500000	-1.971830 
261.000000	-2.620859 
261.500000	-3.099122 
262.000000	-3.438050 
262.500000	-3.548599 
263.000000	-3.644206 
263.500000	-3.530194 
264.000000	-3.352045 
264.500000	-3.391892 
265.000000	-3.550103 
265.500000	-3.736703 
266.000000	-3.878091 
266.500000	-3.848887 
267.000000	-3.566691 
267.500000	-3.075670 
268.000000	-2.215072 
268.500000	-1.394657 
269.000000	-0.567292 
269.500000	-0.132165 
270.000000	0.057588  
270.500000	-0.017202 
271.000000	-0.505534 
271.500000	-1.094421 
272.000000	-1.780343 
272.500000	-2.029349 
273.000000	-2.081144 
273.500000	-1.863117 
274.000000	-1.589595 
274.500000	-1.344337 
275.000000	-1.224245 
275.500000	-1.510987 
276.000000	-1.970748 
276.500000	-2.737193 
277.000000	-3.483119 
277.500000	-3.872664 
278.000000	-3.911438 
278.500000	-3.547098 
279.000000	-2.973898 
279.500000	-2.066102 
280.000000	-1.266562 
280.500000	-0.512486 
281.000000	0.049087  
281.500000	0.025313  
282.000000	0.043443  
282.500000	-0.071200 
283.000000	-0.307760 
283.500000	-0.564333 
284.000000	-0.791831 
284.500000	-1.022853 
285.000000	-1.286611 
285.500000	-1.353731 
286.000000	-1.749279 
286.500000	-2.155774 
287.000000	-2.778651 
287.500000	-3.034984 
288.000000	-3.003046 
288.500000	-2.737710 
289.000000	-2.384111 
289.500000	-2.134633 
290.000000	-1.574932 
290.500000	-0.812361 
291.000000	-0.304607 
291.500000	-0.602052 
292.000000	-0.772523 
292.500000	-0.749081 
293.000000	-0.351083 
293.500000	0.084133  
294.000000	0.247935  
294.500000	0.451926  
295.000000	1.000474  
295.500000	1.689407  
296.000000	1.639613  
296.500000	1.304729  
297.000000	0.878323  
297.500000	0.807506  
298.000000	0.911053  
298.500000	0.668854  
299.000000	0.283296  
299.500000	0.170125  
300.000000	0.316340  
300.500000	0.351759  
301.000000	0.230650  
301.500000	-0.064960 
302.000000	-0.278463 
302.500000	-0.224434 
303.000000	-0.379250 
303.500000	-0.722852 
304.000000	-1.029189 
304.500000	-1.323053 
305.000000	-1.597003 
305.500000	-1.916876 
306.000000	-2.215924 
306.500000	-2.469576 
307.000000	-2.338866 
307.500000	-2.258834 
308.000000	-2.003560 
308.500000	-1.292798 
309.000000	-0.288174 
309.500000	0.984951  
310.000000	2.360377  
310.500000	3.324910  
311.000000	3.788197  
311.500000	4.146290  
312.000000	4.089631  
312.500000	3.672534  
313.000000	3.078499  
313.500000	2.523467  
314.000000	2.505103  
314.500000	2.847655  
315.000000	3.373522  
315.500000	3.980311  
316.000000	4.964983  
316.500000	5.979707  
317.000000	6.928575  
317.500000	7.686513  
318.000000	8.283097  
318.500000	8.923524  
319.000000	9.250103  
319.500000	9.671301  
320.000000	9.792109  
320.500000	9.841223  
321.000000	9.708243  
321.500000	9.525151  
322.000000	9.205524  
322.500000	8.884693  
323.000000	8.643883  
323.500000	7.932888  
324.000000	7.460112  
324.500000	7.144582  
325.000000	7.043844  
325.500000	6.944729  
326.000000	6.970713  
326.500000	6.989651  
327.000000	7.146004  
327.500000	7.407352  
328.000000	7.427605  
328.500000	7.448243  
329.000000	7.531256  
329.500000	7.564746  
330.000000	7.503384  
330.500000	7.444006  
331.000000	7.289727  
331.500000	7.039937  
332.000000	6.945862  
332.500000	7.051113  
333.000000	7.042711  
333.500000	7.199643  
334.000000	7.430433  
334.500000	7.636491  
335.000000	7.689161  
335.500000	7.521019  
336.000000	7.111133  
336.500000	6.685968  
337.000000	6.309398  
337.500000	5.952142  
338.000000	5.753484  
338.500000	5.826033  
339.000000	6.242375  
339.500000	6.821286  
340.000000	7.392508  
340.500000	7.796707  
341.000000	8.180647  
341.500000	8.388777  
342.000000	8.550143  
342.500000	8.446097  
343.000000	8.185637  
343.500000	7.997104  
344.000000	7.867473  
344.500000	7.612935  
345.000000	7.343341  
345.500000	7.105621  
346.000000	6.714550  
346.500000	6.512184  
347.000000	6.286406  
347.500000	6.060222  
348.000000	5.958896  
348.500000	6.094640  
349.000000	6.299318  
349.500000	6.595355  
350.000000	6.886142  
350.500000	7.056247  
351.000000	7.229401  
351.500000	7.339258  
352.000000	7.364208  
352.500000	7.420874  
353.000000	7.523542  
353.500000	7.627028  
354.000000	7.812156  
354.500000	8.026770  
355.000000	8.155820  
355.500000	8.155683  
356.000000	8.053135  
356.500000	7.794611  
357.000000	7.587401  
357.500000	7.348215  
358.000000	7.156829  
358.500000	7.081744  
359.000000	7.054402  
359.500000	7.128342  
360.000000	7.205394  
360.500000	7.227688  
361.000000	7.029555  
361.500000	6.827239  
362.000000	6.570113  
362.500000	6.353211  
363.000000	6.225797  
363.500000	6.108922  
364.000000	6.160768  
364.500000	6.340145  
365.000000	6.591163  
365.500000	6.762002  
366.000000	6.882919  
366.500000	6.928668  
367.000000	6.977920  
367.500000	7.113072  
368.000000	7.166280  
368.500000	7.256346  
369.000000	7.376146  
369.500000	7.480033  
370.000000	7.564071  
370.500000	7.577402  
371.000000	7.486897  
371.500000	7.353355  
372.000000	7.291315  
372.500000	7.272053  
373.000000	7.276204  
373.500000	7.313793  
374.000000	7.297822  
374.500000	7.312471  
375.000000	7.255961  
375.500000	7.165448  
376.000000	7.020341  
376.500000	6.847764  
377.000000	6.803352  
377.500000	6.824950  
378.000000	6.889361  
378.500000	6.921930  
379.000000	7.015157  
379.500000	7.035644  
380.000000	7.011951  
380.500000	7.010055  
381.000000	6.932539  
381.500000	6.949376  
382.000000	7.056479  
382.500000	7.219296  
383.000000	7.282874  
383.500000	7.343769  
384.000000	7.273551  
384.500000	7.160433  
385.000000	7.157663  
385.500000	7.158524  
386.000000	7.236693  
386.500000	7.349858  
387.000000	7.602736  
387.500000	7.770400  
388.000000	7.894423  
388.500000	7.802048  
389.000000	7.578969  
389.500000	7.351906  
390.000000	7.209403  
390.500000	7.150212  
391.000000	7.098552  
391.500000	7.219028  
392.000000	7.326864  
392.500000	7.401960  
393.000000	7.290880  
393.500000	7.083983  
394.000000	6.775075  
394.500000	6.584657  
395.000000	6.543952  
395.500000	6.585523  
396.000000	6.766467  
396.500000	6.971852  
397.000000	7.234996  
397.500000	7.413684  
398.000000	7.559914  
398.500000	7.528963  
399.000000	7.443949  
399.500000	7.388478  
400.000000	7.336673  
400.500000	7.314105  
401.000000	7.248269  
401.500000	7.235161  
402.000000	7.149245  
402.500000	7.062636  
403.000000	6.889902  
403.500000	6.669168  
404.000000	6.534533  
404.500000	6.414359  
405.000000	6.336796  
405.500000	6.245370  
406.000000	6.265814  
406.500000	6.316499  
407.000000	6.403819  
407.500000	6.440649  
408.000000	6.405742  
408.500000	6.428110  
409.000000	6.381517  
409.500000	6.261696  
410.000000	6.143707  
410.500000	6.066616  
411.000000	6.053707  
411.500000	6.097161  
412.000000	6.083504  
412.500000	6.014157  
413.000000	5.959097  
413.500000	5.839665  
414.000000	5.600060  
414.500000	5.342703  
415.000000	5.079526  
415.500000	4.911203  
416.000000	4.843956  
416.500000	4.867988  
417.000000	4.933561  
417.500000	5.084979  
418.000000	5.277227  
418.500000	5.410766  
419.000000	5.518682  
419.500000	5.556664  
420.000000	5.536580  
420.500000	5.419424  
421.000000	5.261112  
421.500000	5.067994  
422.000000	4.885881  
422.500000	4.750327  
423.000000	4.660901  
423.500000	4.626745  
424.000000	4.641331  
424.500000	4.691966  
425.000000	4.717486  
425.500000	4.735221  
426.000000	4.713241  
426.500000	4.663345  
427.000000	4.639477  
427.500000	4.618901  
428.000000	4.615618  
428.500000	4.600676  
429.000000	4.593285  
429.500000	4.585504  
430.000000	4.537084  
430.500000	4.449650  
431.000000	4.333786  
431.500000	4.242020  
432.000000	4.204426  
432.500000	4.226339  
433.000000	4.253387  
433.500000	4.315127  
434.000000	4.417889  
434.500000	4.504063  
435.000000	4.545533  
435.500000	4.503192  
436.000000	4.414242  
436.500000	4.323321  
437.000000	4.263015  
437.500000	4.246885  
438.000000	4.268077  
438.500000	4.358701  
439.000000	4.449758  
439.500000	4.557530  
440.000000	4.609465  
440.500000	4.600358  
441.000000	4.554910  
441.500000	4.463678  
442.000000	4.376122  
442.500000	4.327160  
443.000000	4.326801  
443.500000	4.339018  
444.000000	4.406670  
444.500000	4.477956  

