PE FL                   SPECTRUM    ASCII       PEDS        1.60        
  -1
PM401D~1
23/10/10
10:50:35.00
23/10/10
10:50:35.00


444.500000
1









LS55
15.00
5.00
5.00
SCAN
1
20
100
100
0
500
0
2
0
1
7
ON
500 450 
1 0 0
#HDR
-1
-1
#GR
NM

0.00002384185791015625
0.0
300.000000
0.500000
290
8
8.949919
-1.723605
#DATA
300.000000	1.028000  
300.500000	0.189835  
301.000000	-0.535020 
301.500000	-0.896222 
302.000000	-1.132786 
302.500000	-1.444997 
303.000000	-1.723605 
303.500000	-1.416727 
304.000000	-1.030584 
304.500000	-0.465103 
305.000000	0.252818  
305.500000	1.053179  
306.000000	1.832668  
306.500000	2.673455  
307.000000	2.973861  
307.500000	2.487272  
308.000000	1.768514  
308.500000	0.816569  
309.000000	-0.157374 
309.500000	-0.923510 
310.000000	-1.251653 
310.500000	-1.161588 
311.000000	-0.494417 
311.500000	0.540113  
312.000000	1.748219  
312.500000	2.749453  
313.000000	3.440128  
313.500000	3.722522  
314.000000	3.756902  
314.500000	3.636560  
315.000000	3.494492  
315.500000	3.158370  
316.000000	2.986196  
316.500000	3.430164  
317.000000	3.896794  
317.500000	4.584299  
318.000000	5.377879  
318.500000	6.271948  
319.000000	7.085821  
319.500000	7.772687  
320.000000	8.184693  
320.500000	8.335675  
321.000000	8.635074  
321.500000	8.541663  
322.000000	8.360071  
322.500000	8.007374  
323.000000	7.625190  
323.500000	7.216825  
324.000000	6.684451  
324.500000	6.299971  
325.000000	6.130628  
325.500000	6.327610  
326.000000	6.560500  
326.500000	7.106402  
327.000000	7.762449  
327.500000	8.382677  
328.000000	8.858970  
328.500000	8.949919  
329.000000	8.845713  
329.500000	8.501183  
330.000000	8.007899  
330.500000	7.506150  
331.000000	7.115355  
331.500000	6.741848  
332.000000	6.475431  
332.500000	6.303392  
333.000000	6.268612  
333.500000	6.296552  
334.000000	6.394486  
334.500000	6.413953  
335.000000	6.601373  
335.500000	6.736328  
336.000000	6.603692  
336.500000	6.265605  
337.000000	5.744577  
337.500000	5.198303  
338.000000	4.484955  
338.500000	3.909574  
339.000000	3.464692  
339.500000	3.423919  
340.000000	3.502461  
340.500000	3.712857  
341.000000	3.890502  
341.500000	3.933970  
342.000000	3.799706  
342.500000	3.393118  
343.000000	2.897614  
343.500000	2.393787  
344.000000	2.100761  
344.500000	1.804710  
345.000000	1.762855  
345.500000	1.875204  
346.000000	2.133198  
346.500000	2.286323  
347.000000	2.406586  
347.500000	2.384000  
348.000000	2.324265  
348.500000	2.382650  
349.000000	2.340356  
349.500000	2.309360  
350.000000	2.220707  
350.500000	2.157811  
351.000000	1.979892  
351.500000	1.862477  
352.000000	1.731991  
352.500000	1.528608  
353.000000	1.395890  
353.500000	1.380039  
354.000000	1.470932  
354.500000	1.574350  
355.000000	1.682076  
355.500000	1.746510  
356.000000	1.739958  
356.500000	1.725634  
357.000000	1.579904  
357.500000	1.404417  
358.000000	1.205837  
358.500000	0.991745  
359.000000	0.831831  
359.500000	0.754136  
360.000000	0.753518  
360.500000	0.767075  
361.000000	0.873076  
361.500000	0.915534  
362.000000	1.004762  
362.500000	1.087309  
363.000000	1.089611  
363.500000	1.086274  
364.000000	1.126186  
364.500000	1.207776  
365.000000	1.412345  
365.500000	1.648809  
366.000000	1.824040  
366.500000	2.008545  
367.000000	2.236758  
367.500000	2.418364  
368.000000	2.568072  
368.500000	2.586460  
369.000000	2.450506  
369.500000	2.297398  
370.000000	2.086954  
370.500000	1.899281  
371.000000	1.704439  
371.500000	1.632304  
372.000000	1.625584  
372.500000	1.704943  
373.000000	1.803142  
373.500000	1.909267  
374.000000	1.982290  
374.500000	1.986928  
375.000000	1.990284  
375.500000	1.834816  
376.000000	1.680012  
376.500000	1.453159  
377.000000	1.194439  
377.500000	0.930291  
378.000000	0.744981  
378.500000	0.547677  
379.000000	0.401468  
379.500000	0.396789  
380.000000	0.410087  
380.500000	0.551546  
381.000000	0.756839  
381.500000	1.039431  
382.000000	1.345871  
382.500000	1.641986  
383.000000	1.835355  
383.500000	1.947434  
384.000000	2.027825  
384.500000	2.003142  
385.000000	1.972748  
385.500000	1.875761  
386.000000	1.734550  
386.500000	1.633113  
387.000000	1.523857  
387.500000	1.397281  
388.000000	1.270842  
388.500000	1.171716  
389.000000	1.010791  
389.500000	0.937076  
390.000000	0.861549  
390.500000	0.801646  
391.000000	0.790145  
391.500000	0.778068  
392.000000	0.775800  
392.500000	0.789685  
393.000000	0.861266  
393.500000	0.898127  
394.000000	1.055457  
394.500000	1.196906  
395.000000	1.337072  
395.500000	1.480582  
396.000000	1.594419  
396.500000	1.607431  
397.000000	1.549065  
397.500000	1.445897  
398.000000	1.333751  
398.500000	1.315502  
399.000000	1.277620  
399.500000	1.252747  
400.000000	1.264117  
400.500000	1.357363  
401.000000	1.419026  
401.500000	1.465729  
402.000000	1.474943  
402.500000	1.471212  
403.000000	1.501297  
403.500000	1.520891  
404.000000	1.504613  
404.500000	1.486791  
405.000000	1.503744  
405.500000	1.489776  
406.000000	1.475442  
406.500000	1.464927  
407.000000	1.422517  
407.500000	1.415762  
408.000000	1.410963  
408.500000	1.384954  
409.000000	1.371177  
409.500000	1.339772  
410.000000	1.296169  
410.500000	1.253428  
411.000000	1.253419  
411.500000	1.234479  
412.000000	1.271039  
412.500000	1.320091  
413.000000	1.372988  
413.500000	1.451649  
414.000000	1.497093  
414.500000	1.520503  
415.000000	1.553170  
415.500000	1.591154  
416.000000	1.583229  
416.500000	1.564474  
417.000000	1.542645  
417.500000	1.514943  
418.000000	1.499852  
418.500000	1.452226  
419.000000	1.388793  
419.500000	1.343613  
420.000000	1.328524  
420.500000	1.317528  
421.000000	1.280513  
421.500000	1.230493  
422.000000	1.197739  
422.500000	1.177383  
423.000000	1.142120  
423.500000	1.095033  
424.000000	1.055409  
424.500000	1.061281  
425.000000	1.066336  
425.500000	1.053713  
426.000000	1.031681  
426.500000	1.027650  
427.000000	1.033315  
427.500000	1.032632  
428.000000	1.032952  
428.500000	1.049121  
429.000000	1.098970  
429.500000	1.137959  
430.000000	1.186820  
430.500000	1.234682  
431.000000	1.287424  
431.500000	1.317158  
432.000000	1.307825  
432.500000	1.269994  
433.000000	1.236212  
433.500000	1.204645  
434.000000	1.144765  
434.500000	1.089203  
435.000000	1.050943  
435.500000	1.033402  
436.000000	1.028746  
436.500000	1.023217  
437.000000	1.004649  
437.500000	1.000225  
438.000000	1.002710  
438.500000	0.992912  
439.000000	0.994181  
439.500000	1.015803  
440.000000	1.059799  
440.500000	1.117540  
441.000000	1.166551  
441.500000	1.202432  
442.000000	1.227312  
442.500000	1.255353  
443.000000	1.261226  
443.500000	1.253164  
444.000000	1.243140  
444.500000	1.241673  

