PE FL                   SPECTRUM    ASCII       PEDS        1.60        
  -1
PM406D~1
23/10/10
10:53:26.00
23/10/10
10:53:26.00


444.500000
1









LS55
40.00
5.00
5.00
SCAN
1
20
100
100
0
500
0
2
0
1
7
ON
500 450 
1 0 0
#HDR
-1
-1
#GR
NM

0.00002384185791015625
0.0
300.000000
0.500000
290
8
22.488562
0.030987
#DATA
300.000000	12.336000 
300.500000	11.543887 
301.000000	11.267912 
301.500000	11.374696 
302.000000	12.127836 
302.500000	13.204986 
303.000000	14.389661 
303.500000	15.565799 
304.000000	16.734637 
304.500000	17.538917 
305.000000	17.904724 
305.500000	18.108038 
306.000000	18.156250 
306.500000	18.414926 
307.000000	18.648963 
307.500000	18.865880 
308.000000	19.123523 
308.500000	19.568685 
309.000000	20.030563 
309.500000	20.514340 
310.000000	20.823981 
310.500000	20.887448 
311.000000	21.044698 
311.500000	21.079522 
312.000000	21.006324 
312.500000	20.684608 
313.000000	20.462753 
313.500000	20.532765 
314.000000	21.068930 
314.500000	21.528610 
315.000000	21.840081 
315.500000	22.244507 
316.000000	22.488562 
316.500000	22.476257 
317.000000	21.920187 
317.500000	21.059843 
318.000000	20.262972 
318.500000	19.763260 
319.000000	19.255935 
319.500000	18.636928 
320.000000	18.190587 
320.500000	17.964838 
321.000000	17.875747 
321.500000	17.618699 
322.000000	17.170220 
322.500000	16.910896 
323.000000	16.889533 
323.500000	16.913281 
324.000000	16.932520 
324.500000	16.857234 
325.000000	16.602247 
325.500000	16.113732 
326.000000	15.487129 
326.500000	14.571840 
327.000000	13.687156 
327.500000	12.741616 
328.000000	11.862929 
328.500000	11.120630 
329.000000	10.527376 
329.500000	9.979608  
330.000000	9.519680  
330.500000	9.238138  
331.000000	9.066026  
331.500000	9.109514  
332.000000	9.025662  
332.500000	8.799371  
333.000000	8.393457  
333.500000	7.831872  
334.000000	7.116010  
334.500000	6.317976  
335.000000	5.564626  
335.500000	4.846543  
336.000000	4.480165  
336.500000	4.316391  
337.000000	4.322026  
337.500000	4.338098  
338.000000	4.274963  
338.500000	4.110391  
339.000000	3.824742  
339.500000	3.445235  
340.000000	2.961356  
340.500000	2.530325  
341.000000	2.235110  
341.500000	2.133537  
342.000000	2.137430  
342.500000	2.059641  
343.000000	2.037460  
343.500000	1.997113  
344.000000	1.948934  
344.500000	1.908037  
345.000000	1.967253  
345.500000	2.042261  
346.000000	2.254375  
346.500000	2.580350  
347.000000	2.800453  
347.500000	3.057774  
348.000000	3.281894  
348.500000	3.280798  
349.000000	3.131178  
349.500000	2.987729  
350.000000	2.820811  
350.500000	2.686851  
351.000000	2.638271  
351.500000	2.497910  
352.000000	2.464118  
352.500000	2.523934  
353.000000	2.553382  
353.500000	2.445193  
354.000000	2.309207  
354.500000	2.221556  
355.000000	2.105608  
355.500000	2.030969  
356.000000	1.810873  
356.500000	1.604841  
357.000000	1.522064  
357.500000	1.489810  
358.000000	1.418606  
358.500000	1.358799  
359.000000	1.427841  
359.500000	1.452954  
360.000000	1.419651  
360.500000	1.315676  
361.000000	1.145080  
361.500000	1.018593  
362.000000	0.841896  
362.500000	0.660665  
363.000000	0.577490  
363.500000	0.700785  
364.000000	0.867212  
364.500000	1.089500  
365.000000	1.312817  
365.500000	1.456920  
366.000000	1.541187  
366.500000	1.454642  
367.000000	1.272209  
367.500000	1.038540  
368.000000	0.807037  
368.500000	0.607767  
369.000000	0.505425  
369.500000	0.429966  
370.000000	0.470996  
370.500000	0.582775  
371.000000	0.759640  
371.500000	1.032241  
372.000000	1.299094  
372.500000	1.459509  
373.000000	1.551734  
373.500000	1.643525  
374.000000	1.627822  
374.500000	1.623802  
375.000000	1.636073  
375.500000	1.599929  
376.000000	1.584459  
376.500000	1.591388  
377.000000	1.471701  
377.500000	1.338976  
378.000000	1.156645  
378.500000	0.892338  
379.000000	0.639408  
379.500000	0.496571  
380.000000	0.398277  
380.500000	0.368104  
381.000000	0.463555  
381.500000	0.554847  
382.000000	0.694113  
382.500000	0.768955  
383.000000	0.810901  
383.500000	0.806026  
384.000000	0.831580  
384.500000	0.807679  
385.000000	0.752782  
385.500000	0.744390  
386.000000	0.724983  
386.500000	0.732491  
387.000000	0.740875  
387.500000	0.747038  
388.000000	0.748906  
388.500000	0.761522  
389.000000	0.713727  
389.500000	0.667251  
390.000000	0.652147  
390.500000	0.619870  
391.000000	0.602460  
391.500000	0.583689  
392.000000	0.570735  
392.500000	0.540648  
393.000000	0.549320  
393.500000	0.499406  
394.000000	0.418373  
394.500000	0.339508  
395.000000	0.247754  
395.500000	0.176227  
396.000000	0.147283  
396.500000	0.174354  
397.000000	0.199481  
397.500000	0.263969  
398.000000	0.318771  
398.500000	0.413422  
399.000000	0.523003  
399.500000	0.597319  
400.000000	0.695953  
400.500000	0.790076  
401.000000	0.897710  
401.500000	0.970366  
402.000000	0.976085  
402.500000	0.923573  
403.000000	0.880446  
403.500000	0.827244  
404.000000	0.742797  
404.500000	0.699755  
405.000000	0.657803  
405.500000	0.638302  
406.000000	0.656283  
406.500000	0.644805  
407.000000	0.599341  
407.500000	0.564091  
408.000000	0.510665  
408.500000	0.427634  
409.000000	0.371108  
409.500000	0.300123  
410.000000	0.219849  
410.500000	0.171688  
411.000000	0.137049  
411.500000	0.121622  
412.000000	0.159802  
412.500000	0.258820  
413.000000	0.372441  
413.500000	0.502893  
414.000000	0.586772  
414.500000	0.637774  
415.000000	0.643763  
415.500000	0.634448  
416.000000	0.583551  
416.500000	0.516933  
417.000000	0.483785  
417.500000	0.474554  
418.000000	0.489502  
418.500000	0.479120  
419.000000	0.468022  
419.500000	0.417118  
420.000000	0.359173  
420.500000	0.276413  
421.000000	0.177531  
421.500000	0.088517  
422.000000	0.030987  
422.500000	0.038191  
423.000000	0.071849  
423.500000	0.164152  
424.000000	0.262870  
424.500000	0.356037  
425.000000	0.421427  
425.500000	0.458048  
426.000000	0.446976  
426.500000	0.397883  
427.000000	0.349727  
427.500000	0.294045  
428.000000	0.268481  
428.500000	0.280152  
429.000000	0.332342  
429.500000	0.401696  
430.000000	0.465282  
430.500000	0.514749  
431.000000	0.535754  
431.500000	0.535773  
432.000000	0.511808  
432.500000	0.453568  
433.000000	0.405051  
433.500000	0.398675  
434.000000	0.411186  
434.500000	0.448500  
435.000000	0.492161  
435.500000	0.539984  
436.000000	0.576513  
436.500000	0.603436  
437.000000	0.584031  
437.500000	0.544628  
438.000000	0.514430  
438.500000	0.480852  
439.000000	0.475928  
439.500000	0.474899  
440.000000	0.496213  
440.500000	0.524985  
441.000000	0.552866  
441.500000	0.558745  
442.000000	0.535156  
442.500000	0.505354  
443.000000	0.469807  
443.500000	0.446348  
444.000000	0.424984  
444.500000	0.424313  

