PE FL                   SPECTRUM    ASCII       PEDS        1.60        
  -1
PM405D~1
23/10/10
10:52:52.00
23/10/10
10:52:52.00


444.500000
1









LS55
35.00
5.00
5.00
SCAN
1
20
100
100
0
500
0
2
0
1
7
ON
500 450 
1 0 0
#HDR
-1
-1
#GR
NM

0.00002384185791015625
0.0
300.000000
0.500000
290
8
20.606624
-0.403509
#DATA
300.000000	6.578000  
300.500000	6.825532  
301.000000	7.045430  
301.500000	7.283747  
302.000000	7.515272  
302.500000	7.938473  
303.000000	8.724299  
303.500000	9.391300  
304.000000	10.149155 
304.500000	10.992416 
305.000000	12.075952 
305.500000	13.017093 
306.000000	13.967678 
306.500000	14.588318 
307.000000	15.178720 
307.500000	16.066065 
308.000000	16.776394 
308.500000	17.420174 
309.000000	17.956821 
309.500000	18.603372 
310.000000	19.009031 
310.500000	19.347885 
311.000000	19.360627 
311.500000	19.097699 
312.000000	19.040786 
312.500000	18.939455 
313.000000	18.814902 
313.500000	18.807425 
314.000000	19.006980 
314.500000	19.273354 
315.000000	19.354764 
315.500000	19.556871 
316.000000	19.596691 
316.500000	19.830503 
317.000000	20.060494 
317.500000	20.128234 
318.000000	20.217990 
318.500000	20.405659 
319.000000	20.606624 
319.500000	20.548052 
320.000000	20.501527 
320.500000	20.131178 
321.000000	19.732442 
321.500000	19.280360 
322.000000	18.579789 
322.500000	17.870118 
323.000000	17.290955 
323.500000	16.794833 
324.000000	16.368378 
324.500000	16.113716 
325.000000	15.909056 
325.500000	15.814100 
326.000000	15.758334 
326.500000	15.614431 
327.000000	15.522045 
327.500000	15.412452 
328.000000	15.025914 
328.500000	14.424338 
329.000000	13.554900 
329.500000	12.541822 
330.000000	11.300925 
330.500000	9.975303  
331.000000	8.628373  
331.500000	7.694692  
332.000000	7.039216  
332.500000	6.805585  
333.000000	6.914940  
333.500000	7.183270  
334.000000	7.573043  
334.500000	7.854457  
335.000000	7.992566  
335.500000	7.765984  
336.000000	7.306494  
336.500000	6.494112  
337.000000	5.626212  
337.500000	4.772057  
338.000000	4.003271  
338.500000	3.451182  
339.000000	3.134713  
339.500000	3.162504  
340.000000	3.407109  
340.500000	3.711130  
341.000000	3.873027  
341.500000	3.956222  
342.000000	3.833186  
342.500000	3.497662  
343.000000	3.093795  
343.500000	2.665092  
344.000000	2.299848  
344.500000	2.098303  
345.000000	1.908624  
345.500000	1.818661  
346.000000	1.837232  
346.500000	1.828137  
347.000000	1.734993  
347.500000	1.637920  
348.000000	1.519424  
348.500000	1.246173  
349.000000	0.963010  
349.500000	0.625819  
350.000000	0.318431  
350.500000	0.122447  
351.000000	-0.042762 
351.500000	-0.179205 
352.000000	-0.307294 
352.500000	-0.256263 
353.000000	-0.260267 
353.500000	-0.221506 
354.000000	-0.072300 
354.500000	0.237988  
355.000000	0.599904  
355.500000	0.971625  
356.000000	1.264105  
356.500000	1.310834  
357.000000	1.312589  
357.500000	1.096390  
358.000000	0.710467  
358.500000	0.259780  
359.000000	-0.057044 
359.500000	-0.211318 
360.000000	-0.189932 
360.500000	-0.099759 
361.000000	-0.021562 
361.500000	0.146485  
362.000000	0.292093  
362.500000	0.339153  
363.000000	0.259042  
363.500000	0.280422  
364.000000	0.398486  
364.500000	0.581264  
365.000000	0.802914  
365.500000	0.990265  
366.000000	1.192064  
366.500000	1.379902  
367.000000	1.423107  
367.500000	1.268973  
368.000000	1.065866  
368.500000	0.782801  
369.000000	0.444001  
369.500000	0.146960  
370.000000	-0.143207 
370.500000	-0.344743 
371.000000	-0.398661 
371.500000	-0.403509 
372.000000	-0.354033 
372.500000	-0.177145 
373.000000	-0.009641 
373.500000	0.145992  
374.000000	0.356323  
374.500000	0.536085  
375.000000	0.633494  
375.500000	0.726361  
376.000000	0.804860  
376.500000	0.888987  
377.000000	0.991910  
377.500000	1.035881  
378.000000	1.029315  
378.500000	0.999529  
379.000000	0.899378  
379.500000	0.678918  
380.000000	0.361264  
380.500000	0.065375  
381.000000	-0.144704 
381.500000	-0.244833 
382.000000	-0.204018 
382.500000	-0.020472 
383.000000	0.282027  
383.500000	0.613898  
384.000000	0.891854  
384.500000	1.014120  
385.000000	1.053639  
385.500000	1.035728  
386.000000	0.934814  
386.500000	0.780189  
387.000000	0.689739  
387.500000	0.646004  
388.000000	0.641634  
388.500000	0.675202  
389.000000	0.643780  
389.500000	0.657902  
390.000000	0.668670  
390.500000	0.651088  
391.000000	0.562474  
391.500000	0.525981  
392.000000	0.494187  
392.500000	0.493266  
393.000000	0.478765  
393.500000	0.432267  
394.000000	0.454570  
394.500000	0.513382  
395.000000	0.626154  
395.500000	0.678540  
396.000000	0.744780  
396.500000	0.764696  
397.000000	0.790866  
397.500000	0.751350  
398.000000	0.629315  
398.500000	0.518808  
399.000000	0.434870  
399.500000	0.451301  
400.000000	0.511512  
400.500000	0.615474  
401.000000	0.723120  
401.500000	0.857564  
402.000000	0.963186  
402.500000	1.004920  
403.000000	0.970001  
403.500000	0.848515  
404.000000	0.716226  
404.500000	0.587264  
405.000000	0.457220  
405.500000	0.340458  
406.000000	0.252720  
406.500000	0.232964  
407.000000	0.233928  
407.500000	0.316029  
408.000000	0.402580  
408.500000	0.521368  
409.000000	0.654676  
409.500000	0.732095  
410.000000	0.777476  
410.500000	0.757423  
411.000000	0.692895  
411.500000	0.549162  
412.000000	0.442767  
412.500000	0.356610  
413.000000	0.345219  
413.500000	0.399157  
414.000000	0.445867  
414.500000	0.504769  
415.000000	0.572190  
415.500000	0.632925  
416.000000	0.610457  
416.500000	0.562392  
417.000000	0.482003  
417.500000	0.409538  
418.000000	0.390123  
418.500000	0.375316  
419.000000	0.353682  
419.500000	0.373320  
420.000000	0.411162  
420.500000	0.431290  
421.000000	0.441346  
421.500000	0.454728  
422.000000	0.466900  
422.500000	0.491967  
423.000000	0.511579  
423.500000	0.500122  
424.000000	0.507622  
424.500000	0.514705  
425.000000	0.501421  
425.500000	0.491838  
426.000000	0.486718  
426.500000	0.481983  
427.000000	0.495005  
427.500000	0.508042  
428.000000	0.510305  
428.500000	0.531121  
429.000000	0.568944  
429.500000	0.621404  
430.000000	0.675921  
430.500000	0.704131  
431.000000	0.700491  
431.500000	0.689283  
432.000000	0.652476  
432.500000	0.593733  
433.000000	0.531889  
433.500000	0.478006  
434.000000	0.453710  
434.500000	0.483453  
435.000000	0.540064  
435.500000	0.602020  
436.000000	0.672720  
436.500000	0.742803  
437.000000	0.780044  
437.500000	0.785284  
438.000000	0.751618  
438.500000	0.688961  
439.000000	0.622162  
439.500000	0.545044  
440.000000	0.486428  
440.500000	0.445940  
441.000000	0.429333  
441.500000	0.428987  
442.000000	0.462204  
442.500000	0.509921  
443.000000	0.563749  
443.500000	0.608064  
444.000000	0.615275  
444.500000	0.625272  

