PE FL                   SPECTRUM    ASCII       PEDS        1.60        
  -1
PM403D~1
23/10/10
10:51:43.00
23/10/10
10:51:43.00


444.500000
1









LS55
25.00
5.00
5.00
SCAN
1
20
100
100
0
500
0
2
0
1
7
ON
500 450 
1 0 0
#HDR
-1
-1
#GR
NM

0.00002384185791015625
0.0
300.000000
0.500000
290
8
16.081926
-0.038254
#DATA
300.000000	6.132000  
300.500000	5.464330  
301.000000	4.887889  
301.500000	4.418744  
302.000000	4.075733  
302.500000	3.797773  
303.000000	3.298403  
303.500000	3.262370  
304.000000	3.437037  
304.500000	3.698140  
305.000000	3.823586  
305.500000	4.184530  
306.000000	4.706393  
306.500000	5.579646  
307.000000	6.256113  
307.500000	6.384931  
308.000000	6.531554  
308.500000	6.645953  
309.000000	6.907936  
309.500000	6.955065  
310.000000	6.988295  
310.500000	7.166502  
311.000000	7.953987  
311.500000	8.735829  
312.000000	9.371483  
312.500000	10.053824 
313.000000	10.811639 
313.500000	11.727640 
314.000000	12.448227 
314.500000	12.988978 
315.000000	13.497906 
315.500000	14.089192 
316.000000	14.496187 
316.500000	14.838206 
317.000000	14.839065 
317.500000	14.760391 
318.000000	14.857931 
318.500000	15.026920 
319.000000	15.199340 
319.500000	15.464373 
320.000000	15.841411 
320.500000	16.025233 
321.000000	16.081926 
321.500000	15.728226 
322.000000	15.149103 
322.500000	14.603141 
323.000000	14.080455 
323.500000	13.612417 
324.000000	13.456570 
324.500000	13.442474 
325.000000	13.588347 
325.500000	13.891442 
326.000000	14.030621 
326.500000	13.931412 
327.000000	13.858733 
327.500000	13.632288 
328.000000	13.101351 
328.500000	12.562779 
329.000000	11.892095 
329.500000	11.258031 
330.000000	10.695456 
330.500000	10.112326 
331.000000	9.471044  
331.500000	9.103901  
332.000000	8.810273  
332.500000	8.364531  
333.000000	7.876305  
333.500000	7.261721  
334.000000	6.563432  
334.500000	5.925678  
335.000000	5.204920  
335.500000	4.598575  
336.000000	4.339177  
336.500000	4.342763  
337.000000	4.529329  
337.500000	4.645280  
338.000000	4.576951  
338.500000	4.446288  
339.000000	4.176824  
339.500000	3.665318  
340.000000	3.082891  
340.500000	2.482835  
341.000000	1.956249  
341.500000	1.623142  
342.000000	1.373534  
342.500000	1.130630  
343.000000	1.098808  
343.500000	1.136065  
344.000000	1.191755  
344.500000	1.289654  
345.000000	1.365155  
345.500000	1.371126  
346.000000	1.333515  
346.500000	1.280185  
347.000000	1.115187  
347.500000	1.045560  
348.000000	0.992729  
348.500000	0.999180  
349.000000	1.110263  
349.500000	1.315763  
350.000000	1.496482  
350.500000	1.522043  
351.000000	1.473657  
351.500000	1.282222  
352.000000	0.986574  
352.500000	0.660807  
353.000000	0.340429  
353.500000	0.130358  
354.000000	0.121867  
354.500000	0.223981  
355.000000	0.310109  
355.500000	0.469005  
356.000000	0.643178  
356.500000	0.738849  
357.000000	0.793755  
357.500000	0.783465  
358.000000	0.789700  
358.500000	0.817288  
359.000000	0.869444  
359.500000	0.841491  
360.000000	0.855240  
360.500000	0.897149  
361.000000	0.837554  
361.500000	0.773063  
362.000000	0.649640  
362.500000	0.476419  
363.000000	0.321643  
363.500000	0.199245  
364.000000	0.041830  
364.500000	-0.030632 
365.000000	-0.038254 
365.500000	-0.017358 
366.000000	0.067899  
366.500000	0.159568  
367.000000	0.209209  
367.500000	0.268174  
368.000000	0.289390  
368.500000	0.247497  
369.000000	0.206065  
369.500000	0.156946  
370.000000	0.111399  
370.500000	0.194218  
371.000000	0.341003  
371.500000	0.490548  
372.000000	0.648228  
372.500000	0.800896  
373.000000	0.934001  
373.500000	1.022272  
374.000000	1.045208  
374.500000	0.974279  
375.000000	0.923057  
375.500000	0.860802  
376.000000	0.862832  
376.500000	0.889327  
377.000000	0.923133  
377.500000	0.987581  
378.000000	1.012454  
378.500000	1.066842  
379.000000	1.077208  
379.500000	1.072125  
380.000000	1.010500  
380.500000	0.990253  
381.000000	1.024279  
381.500000	1.097910  
382.000000	1.198009  
382.500000	1.261745  
383.000000	1.328633  
383.500000	1.407830  
384.000000	1.460950  
384.500000	1.400840  
385.000000	1.256387  
385.500000	1.116012  
386.000000	1.000107  
386.500000	0.922804  
387.000000	0.781518  
387.500000	0.628521  
388.000000	0.569981  
388.500000	0.614458  
389.000000	0.698951  
389.500000	0.745591  
390.000000	0.826358  
390.500000	0.944531  
391.000000	1.108070  
391.500000	1.165578  
392.000000	1.141379  
392.500000	1.099796  
393.000000	1.064598  
393.500000	1.057545  
394.000000	1.015045  
394.500000	1.004448  
395.000000	0.963408  
395.500000	0.994833  
396.000000	0.994751  
396.500000	0.981390  
397.000000	0.995637  
397.500000	0.958812  
398.000000	0.938130  
398.500000	0.904962  
399.000000	0.914223  
399.500000	0.843577  
400.000000	0.773261  
400.500000	0.698422  
401.000000	0.632072  
401.500000	0.650722  
402.000000	0.656831  
402.500000	0.661862  
403.000000	0.694313  
403.500000	0.787787  
404.000000	0.830885  
404.500000	0.876631  
405.000000	0.932225  
405.500000	0.984426  
406.000000	1.055916  
406.500000	1.089141  
407.000000	1.061555  
407.500000	0.981375  
408.000000	0.869171  
408.500000	0.700765  
409.000000	0.530851  
409.500000	0.420238  
410.000000	0.382175  
410.500000	0.429439  
411.000000	0.541245  
411.500000	0.679662  
412.000000	0.810886  
412.500000	0.889668  
413.000000	0.923083  
413.500000	0.896504  
414.000000	0.846606  
414.500000	0.799647  
415.000000	0.807759  
415.500000	0.860583  
416.000000	0.932314  
416.500000	1.005087  
417.000000	1.040148  
417.500000	1.061416  
418.000000	1.024308  
418.500000	0.944253  
419.000000	0.822738  
419.500000	0.713711  
420.000000	0.647493  
420.500000	0.627648  
421.000000	0.636725  
421.500000	0.667670  
422.000000	0.706342  
422.500000	0.735114  
423.000000	0.743747  
423.500000	0.751647  
424.000000	0.743619  
424.500000	0.748097  
425.000000	0.772473  
425.500000	0.801106  
426.000000	0.852052  
426.500000	0.883875  
427.000000	0.900072  
427.500000	0.887892  
428.000000	0.869681  
428.500000	0.840881  
429.000000	0.812158  
429.500000	0.804406  
430.000000	0.809638  
430.500000	0.843144  
431.000000	0.871762  
431.500000	0.892308  
432.000000	0.896451  
432.500000	0.877309  
433.000000	0.849490  
433.500000	0.843574  
434.000000	0.861898  
434.500000	0.898024  
435.000000	0.950552  
435.500000	1.000349  
436.000000	1.049786  
436.500000	1.098915  
437.000000	1.085209  
437.500000	1.044923  
438.000000	1.002138  
438.500000	0.952755  
439.000000	0.908744  
439.500000	0.865764  
440.000000	0.823832  
440.500000	0.794165  
441.000000	0.791697  
441.500000	0.759686  
442.000000	0.712548  
442.500000	0.679799  
443.000000	0.646108  
443.500000	0.634610  
444.000000	0.634099  
444.500000	0.633587  

