PE FL                   SPECTRUM    ASCII       PEDS        1.60        
  -1
PP90D1~1
23/10/10
15:43:48.00
23/10/10
15:43:48.00


444.500000
1









LS55
45.00
5.00
5.00
SCAN
1
20
100
100
0
500
0
2
0
1
7
ON
500 450 
1 0 0
#HDR
-1
-1
#GR
NM

0.00002384185791015625
0.0
250.000000
0.500000
390
8
9.350625
-4.260216
#DATA
250.000000	0.000000  
250.500000	-1.267934 
251.000000	-1.925224 
251.500000	-2.226807 
252.000000	-2.703577 
252.500000	-2.959557 
253.000000	-2.752210 
253.500000	-2.296388 
254.000000	-1.613939 
254.500000	-1.113213 
255.000000	-0.974061 
255.500000	-0.734287 
256.000000	-0.566386 
256.500000	-1.056377 
257.000000	-1.563521 
257.500000	-1.951716 
258.000000	-2.590418 
258.500000	-2.906972 
259.000000	-2.893583 
259.500000	-2.703663 
260.000000	-2.159679 
260.500000	-1.628146 
261.000000	-1.467181 
261.500000	-1.530178 
262.000000	-1.391949 
262.500000	-1.726025 
263.000000	-2.298306 
263.500000	-2.727616 
264.000000	-2.653694 
264.500000	-2.106109 
265.000000	-1.505201 
265.500000	-0.923347 
266.000000	-0.675696 
266.500000	-0.368473 
267.000000	-0.350709 
267.500000	-0.750662 
268.000000	-1.293007 
268.500000	-1.609954 
269.000000	-1.559352 
269.500000	-1.378129 
270.000000	-1.120828 
270.500000	-1.138936 
271.000000	-1.211814 
271.500000	-1.581762 
272.000000	-2.200299 
272.500000	-3.086742 
273.000000	-3.907460 
273.500000	-4.260216 
274.000000	-4.236280 
274.500000	-3.936249 
275.000000	-3.294272 
275.500000	-2.523181 
276.000000	-1.989376 
276.500000	-1.563089 
277.000000	-1.614893 
277.500000	-2.079232 
278.000000	-2.496119 
278.500000	-2.961701 
279.000000	-3.461693 
279.500000	-3.845980 
280.000000	-3.860401 
280.500000	-3.708990 
281.000000	-3.336149 
281.500000	-3.189532 
282.000000	-3.168194 
282.500000	-2.905000 
283.000000	-2.520508 
283.500000	-2.325024 
284.000000	-2.348436 
284.500000	-2.192162 
285.000000	-1.942574 
285.500000	-1.790336 
286.000000	-1.853832 
286.500000	-2.050300 
287.000000	-2.002880 
287.500000	-1.962077 
288.000000	-1.835204 
288.500000	-1.733975 
289.000000	-1.365648 
289.500000	-0.730127 
290.000000	-0.296392 
290.500000	-0.211882 
291.000000	-0.230832 
291.500000	0.055453  
292.000000	0.122849  
292.500000	0.197414  
293.000000	0.502478  
293.500000	0.847832  
294.000000	1.450485  
294.500000	2.011688  
295.000000	2.363627  
295.500000	2.533632  
296.000000	2.887538  
296.500000	2.975434  
297.000000	3.122938  
297.500000	3.548388  
298.000000	3.690772  
298.500000	3.838518  
299.000000	4.035909  
299.500000	4.009247  
300.000000	3.867688  
300.500000	3.640557  
301.000000	3.319451  
301.500000	3.140936  
302.000000	3.347738  
302.500000	3.895244  
303.000000	4.694472  
303.500000	5.636133  
304.000000	6.578200  
304.500000	7.596702  
305.000000	8.487194  
305.500000	9.145929  
306.000000	9.350625  
306.500000	9.159155  
307.000000	8.883585  
307.500000	8.618874  
308.000000	8.084357  
308.500000	7.171308  
309.000000	6.347297  
309.500000	5.890199  
310.000000	5.844979  
310.500000	6.006763  
311.000000	6.202243  
311.500000	6.500606  
312.000000	7.175774  
312.500000	7.686024  
313.000000	7.789159  
313.500000	7.539987  
314.000000	7.219757  
314.500000	6.688146  
315.000000	6.032406  
315.500000	5.511270  
316.000000	4.940877  
316.500000	4.706455  
317.000000	4.645624  
317.500000	4.676521  
318.000000	4.667215  
318.500000	4.859678  
319.000000	4.878341  
319.500000	4.805166  
320.000000	4.979932  
320.500000	4.952792  
321.000000	4.836997  
321.500000	4.619796  
322.000000	4.533014  
322.500000	4.398810  
323.000000	4.346765  
323.500000	4.226949  
324.000000	3.949425  
324.500000	3.769835  
325.000000	3.607942  
325.500000	3.376587  
326.000000	3.032326  
326.500000	2.817636  
327.000000	2.635641  
327.500000	2.475540  
328.000000	2.312832  
328.500000	2.266435  
329.000000	2.342740  
329.500000	2.661691  
330.000000	3.077230  
330.500000	3.517958  
331.000000	4.052792  
331.500000	4.548540  
332.000000	4.780604  
332.500000	4.664012  
333.000000	4.434317  
333.500000	3.878876  
334.000000	3.322815  
334.500000	2.688061  
335.000000	2.161221  
335.500000	1.899600  
336.000000	1.878486  
336.500000	2.016109  
337.000000	2.201010  
337.500000	2.621839  
338.000000	3.031048  
338.500000	3.429489  
339.000000	3.666511  
339.500000	3.842427  
340.000000	4.060276  
340.500000	4.207951  
341.000000	4.276090  
341.500000	4.137869  
342.000000	4.050418  
342.500000	3.886257  
343.000000	3.678965  
343.500000	3.401029  
344.000000	3.172592  
344.500000	3.138640  
345.000000	3.199065  
345.500000	3.341168  
346.000000	3.398969  
346.500000	3.560640  
347.000000	3.789359  
347.500000	3.938763  
348.000000	4.018462  
348.500000	4.039583  
349.000000	4.060134  
349.500000	4.052573  
350.000000	4.146562  
350.500000	4.175671  
351.000000	4.183629  
351.500000	4.297033  
352.000000	4.390148  
352.500000	4.486096  
353.000000	4.516902  
353.500000	4.537673  
354.000000	4.503548  
354.500000	4.527648  
355.000000	4.549162  
355.500000	4.524633  
356.000000	4.584555  
356.500000	4.682174  
357.000000	4.777080  
357.500000	4.882680  
358.000000	4.919380  
358.500000	4.917985  
359.000000	4.887338  
359.500000	4.885065  
360.000000	4.823145  
360.500000	4.728993  
361.000000	4.670093  
361.500000	4.621486  
362.000000	4.647789  
362.500000	4.630511  
363.000000	4.717694  
363.500000	4.805833  
364.000000	4.910948  
364.500000	5.089633  
365.000000	5.203493  
365.500000	5.364868  
366.000000	5.491896  
366.500000	5.648819  
367.000000	5.737330  
367.500000	5.862748  
368.000000	5.966230  
368.500000	5.986137  
369.000000	5.993024  
369.500000	5.919416  
370.000000	5.815053  
370.500000	5.687596  
371.000000	5.514683  
371.500000	5.316559  
372.000000	5.187336  
372.500000	5.150284  
373.000000	5.109240  
373.500000	5.084324  
374.000000	5.023885  
374.500000	4.957179  
375.000000	4.917565  
375.500000	4.832839  
376.000000	4.701651  
376.500000	4.601807  
377.000000	4.549531  
377.500000	4.527902  
378.000000	4.531394  
378.500000	4.561214  
379.000000	4.586210  
379.500000	4.619120  
380.000000	4.659971  
380.500000	4.625637  
381.000000	4.619811  
381.500000	4.649453  
382.000000	4.661183  
382.500000	4.660454  
383.000000	4.640332  
383.500000	4.565244  
384.000000	4.446052  
384.500000	4.321157  
385.000000	4.143004  
385.500000	3.983762  
386.000000	3.869347  
386.500000	3.805116  
387.000000	3.816921  
387.500000	3.861618  
388.000000	3.929442  
388.500000	4.004598  
389.000000	4.097661  
389.500000	4.121040  
390.000000	4.050340  
390.500000	3.930127  
391.000000	3.799058  
391.500000	3.688688  
392.000000	3.634519  
392.500000	3.521399  
393.000000	3.424163  
393.500000	3.393597  
394.000000	3.356505  
394.500000	3.283221  
395.000000	3.219117  
395.500000	3.161169  
396.000000	3.134573  
396.500000	3.170032  
397.000000	3.222654  
397.500000	3.195157  
398.000000	3.176007  
398.500000	3.092719  
399.000000	2.981680  
399.500000	2.877451  
400.000000	2.761911  
400.500000	2.658493  
401.000000	2.627721  
401.500000	2.725083  
402.000000	2.767229  
402.500000	2.798358  
403.000000	2.759862  
403.500000	2.740702  
404.000000	2.718313  
404.500000	2.688424  
405.000000	2.694760  
405.500000	2.701413  
406.000000	2.829852  
406.500000	2.916039  
407.000000	2.988581  
407.500000	2.993129  
408.000000	3.008291  
408.500000	2.990560  
409.000000	2.943432  
409.500000	2.892980  
410.000000	2.864201  
410.500000	2.897050  
411.000000	2.910178  
411.500000	2.917177  
412.000000	2.898019  
412.500000	2.907233  
413.000000	2.904741  
413.500000	2.869259  
414.000000	2.823439  
414.500000	2.769308  
415.000000	2.751057  
415.500000	2.724920  
416.000000	2.668016  
416.500000	2.586616  
417.000000	2.527963  
417.500000	2.499948  
418.000000	2.464344  
418.500000	2.434140  
419.000000	2.386942  
419.500000	2.382516  
420.000000	2.367941  
420.500000	2.348683  
421.000000	2.329079  
421.500000	2.301854  
422.000000	2.275655  
422.500000	2.229757  
423.000000	2.199582  
423.500000	2.155035  
424.000000	2.135346  
424.500000	2.092498  
425.000000	2.057912  
425.500000	2.036328  
426.000000	2.024001  
426.500000	2.005564  
427.000000	1.972296  
427.500000	1.956196  
428.000000	1.946686  
428.500000	1.947849  
429.000000	1.929870  
429.500000	1.932013  
430.000000	1.930523  
430.500000	1.934583  
431.000000	1.934379  
431.500000	1.911185  
432.000000	1.890160  
432.500000	1.866362  
433.000000	1.843774  
433.500000	1.800728  
434.000000	1.774249  
434.500000	1.736793  
435.000000	1.699545  
435.500000	1.664604  
436.000000	1.611442  
436.500000	1.562276  
437.000000	1.524918  
437.500000	1.515335  
438.000000	1.513169  
438.500000	1.533972  
439.000000	1.569722  
439.500000	1.605029  
440.000000	1.647816  
440.500000	1.670769  
441.000000	1.677702  
441.500000	1.670030  
442.000000	1.669153  
442.500000	1.656686  
443.000000	1.643345  
443.500000	1.633055  
444.000000	1.605019  
444.500000	1.567475  

