PE FL                   SPECTRUM    ASCII       PEDS        1.60        
  -1
PPA049~1
23/10/10
15:44:29.00
23/10/10
15:44:29.00


444.500000
1









LS55
50.00
5.00
5.00
SCAN
1
20
100
100
0
500
0
2
0
1
7
ON
500 450 
1 0 0
#HDR
-1
-1
#GR
NM

0.00002384185791015625
0.0
250.000000
0.500000
390
8
9.137440
-4.999999
#DATA
250.000000	-4.999999 
250.500000	-4.468518 
251.000000	-4.130706 
251.500000	-3.916502 
252.000000	-3.753761 
252.500000	-3.487975 
253.000000	-3.304396 
253.500000	-2.998144 
254.000000	-2.722292 
254.500000	-2.584873 
255.000000	-2.047825 
255.500000	-1.370512 
256.000000	-1.026194 
256.500000	-0.947931 
257.000000	-0.761231 
257.500000	-0.711040 
258.000000	-0.563157 
258.500000	-0.565771 
259.000000	-0.933672 
259.500000	-1.070300 
260.000000	-1.048434 
260.500000	-1.205526 
261.000000	-1.609289 
261.500000	-1.778694 
262.000000	-1.562849 
262.500000	-1.029221 
263.000000	-0.579769 
263.500000	-0.151725 
264.000000	0.302791  
264.500000	0.795001  
265.000000	1.096984  
265.500000	0.834533  
266.000000	0.310778  
266.500000	0.084303  
267.000000	-0.065632 
267.500000	-0.156946 
268.000000	0.125546  
268.500000	0.537101  
269.000000	0.927969  
269.500000	1.412521  
270.000000	1.524997  
270.500000	1.206733  
271.000000	0.546291  
271.500000	-0.494321 
272.000000	-1.441509 
272.500000	-2.233223 
273.000000	-2.796256 
273.500000	-3.181820 
274.000000	-3.165231 
274.500000	-2.665863 
275.000000	-1.685751 
275.500000	-0.872321 
276.000000	-0.380164 
276.500000	0.210689  
277.000000	0.504575  
277.500000	0.696623  
278.000000	0.568321  
278.500000	0.043012  
279.000000	-0.641399 
279.500000	-1.054319 
280.000000	-1.766429 
280.500000	-2.582859 
281.000000	-3.253000 
281.500000	-3.777617 
282.000000	-3.931453 
282.500000	-3.742087 
283.000000	-3.415339 
283.500000	-2.978692 
284.000000	-2.149003 
284.500000	-1.335297 
285.000000	-0.685563 
285.500000	-0.356449 
286.000000	-0.249881 
286.500000	-0.261904 
287.000000	-0.597550 
287.500000	-0.913547 
288.000000	-1.290446 
288.500000	-1.506511 
289.000000	-1.684874 
289.500000	-1.520314 
290.000000	-1.280572 
290.500000	-0.957281 
291.000000	-0.488838 
291.500000	-0.281349 
292.000000	0.024468  
292.500000	0.520856  
293.000000	1.091081  
293.500000	1.188946  
294.000000	1.096737  
294.500000	0.906234  
295.000000	0.596460  
295.500000	0.333722  
296.000000	-0.236593 
296.500000	-0.553086 
297.000000	-0.098898 
297.500000	0.903514  
298.000000	1.783875  
298.500000	2.420326  
299.000000	2.980350  
299.500000	3.073585  
300.000000	3.136736  
300.500000	2.820826  
301.000000	2.255836  
301.500000	2.357421  
302.000000	3.266146  
302.500000	4.428565  
303.000000	5.795838  
303.500000	7.157974  
304.000000	8.103205  
304.500000	8.796045  
305.000000	9.137440  
305.500000	8.846242  
306.000000	8.397174  
306.500000	8.209504  
307.000000	7.854839  
307.500000	7.781975  
308.000000	7.700148  
308.500000	7.399333  
309.000000	6.829254  
309.500000	6.473251  
310.000000	6.056288  
310.500000	5.586504  
311.000000	5.465297  
311.500000	5.424753  
312.000000	5.848101  
312.500000	6.249752  
313.000000	6.580092  
313.500000	6.512435  
314.000000	6.526760  
314.500000	6.332435  
315.000000	5.795966  
315.500000	4.993755  
316.000000	4.222772  
316.500000	3.851153  
317.000000	3.755469  
317.500000	3.702153  
318.000000	3.688481  
318.500000	4.050708  
319.000000	4.614445  
319.500000	5.129197  
320.000000	5.361494  
320.500000	5.412567  
321.000000	5.483512  
321.500000	5.395497  
322.000000	5.105264  
322.500000	4.787960  
323.000000	4.427832  
323.500000	4.130413  
324.000000	3.832778  
324.500000	3.689835  
325.000000	3.546917  
325.500000	3.567712  
326.000000	3.556422  
326.500000	3.509191  
327.000000	3.602398  
327.500000	3.611942  
328.000000	3.479277  
328.500000	3.150117  
329.000000	2.969276  
329.500000	2.809333  
330.000000	2.894637  
330.500000	2.929713  
331.000000	2.972039  
331.500000	3.181668  
332.000000	3.471004  
332.500000	3.580025  
333.000000	3.560952  
333.500000	3.589159  
334.000000	3.579954  
334.500000	3.632083  
335.000000	3.590215  
335.500000	3.477368  
336.000000	3.376471  
336.500000	3.372501  
337.000000	3.285806  
337.500000	3.202758  
338.000000	3.263021  
338.500000	3.504164  
339.000000	3.848689  
339.500000	4.126715  
340.000000	4.194287  
340.500000	4.112299  
341.000000	4.024528  
341.500000	3.963038  
342.000000	3.746327  
342.500000	3.620629  
343.000000	3.597105  
343.500000	3.665233  
344.000000	3.797839  
344.500000	3.897615  
345.000000	3.896137  
345.500000	3.770944  
346.000000	3.743459  
346.500000	3.528749  
347.000000	3.392395  
347.500000	3.170475  
348.000000	3.149643  
348.500000	3.225701  
349.000000	3.424603  
349.500000	3.569065  
350.000000	3.655652  
350.500000	3.887591  
351.000000	4.033872  
351.500000	4.281198  
352.000000	4.373358  
352.500000	4.588226  
353.000000	4.736143  
353.500000	4.948241  
354.000000	4.988252  
354.500000	4.979520  
355.000000	4.937165  
355.500000	4.818947  
356.000000	4.765547  
356.500000	4.670178  
357.000000	4.659375  
357.500000	4.672349  
358.000000	4.823698  
358.500000	4.819295  
359.000000	4.833977  
359.500000	4.833566  
360.000000	4.808367  
360.500000	4.768252  
361.000000	4.791952  
361.500000	4.833927  
362.000000	4.831312  
362.500000	4.900623  
363.000000	4.820658  
363.500000	4.755826  
364.000000	4.730987  
364.500000	4.750416  
365.000000	4.841337  
365.500000	4.918528  
366.000000	4.966776  
366.500000	4.952727  
367.000000	4.974071  
367.500000	4.930055  
368.000000	4.872210  
368.500000	4.885928  
369.000000	4.913083  
369.500000	5.142487  
370.000000	5.295784  
370.500000	5.407985  
371.000000	5.368410  
371.500000	5.254838  
372.000000	5.068945  
372.500000	4.843722  
373.000000	4.696509  
373.500000	4.494287  
374.000000	4.539872  
374.500000	4.630888  
375.000000	4.769935  
375.500000	4.880696  
376.000000	4.947702  
376.500000	4.981602  
377.000000	4.942651  
377.500000	4.945565  
378.000000	4.892931  
378.500000	4.944322  
379.000000	5.030525  
379.500000	5.110530  
380.000000	5.208514  
380.500000	5.305300  
381.000000	5.388415  
381.500000	5.357994  
382.000000	5.281507  
382.500000	5.172451  
383.000000	5.041458  
383.500000	4.949220  
384.000000	4.819257  
384.500000	4.758507  
385.000000	4.716933  
385.500000	4.678791  
386.000000	4.599960  
386.500000	4.524037  
387.000000	4.466954  
387.500000	4.377581  
388.000000	4.319309  
388.500000	4.236862  
389.000000	4.207071  
389.500000	4.222311  
390.000000	4.256574  
390.500000	4.274769  
391.000000	4.306498  
391.500000	4.376531  
392.000000	4.402851  
392.500000	4.427578  
393.000000	4.440969  
393.500000	4.456888  
394.000000	4.447004  
394.500000	4.414378  
395.000000	4.342539  
395.500000	4.267909  
396.000000	4.191838  
396.500000	4.103146  
397.000000	4.022861  
397.500000	3.944674  
398.000000	3.888833  
398.500000	3.814963  
399.000000	3.759448  
399.500000	3.729277  
400.000000	3.713239  
400.500000	3.698718  
401.000000	3.716825  
401.500000	3.715954  
402.000000	3.688390  
402.500000	3.626644  
403.000000	3.523117  
403.500000	3.398208  
404.000000	3.274353  
404.500000	3.141878  
405.000000	3.021448  
405.500000	2.983726  
406.000000	2.992073  
406.500000	3.029075  
407.000000	3.079522  
407.500000	3.152945  
408.000000	3.223567  
408.500000	3.290931  
409.000000	3.319327  
409.500000	3.305848  
410.000000	3.299220  
410.500000	3.268678  
411.000000	3.208743  
411.500000	3.119696  
412.000000	3.041649  
412.500000	2.985068  
413.000000	2.943253  
413.500000	2.908842  
414.000000	2.893998  
414.500000	2.900311  
415.000000	2.931585  
415.500000	2.946301  
416.000000	2.945113  
416.500000	2.937331  
417.000000	2.913971  
417.500000	2.876284  
418.000000	2.806668  
418.500000	2.722152  
419.000000	2.646624  
419.500000	2.562093  
420.000000	2.481398  
420.500000	2.404791  
421.000000	2.345792  
421.500000	2.310217  
422.000000	2.281831  
422.500000	2.256693  
423.000000	2.232976  
423.500000	2.236120  
424.000000	2.242230  
424.500000	2.239233  
425.000000	2.215970  
425.500000	2.188517  
426.000000	2.161430  
426.500000	2.121485  
427.000000	2.075632  
427.500000	2.010903  
428.000000	1.960040  
428.500000	1.910300  
429.000000	1.877981  
429.500000	1.852880  
430.000000	1.839841  
430.500000	1.845447  
431.000000	1.862000  
431.500000	1.895279  
432.000000	1.941056  
432.500000	1.982199  
433.000000	2.006255  
433.500000	2.010181  
434.000000	1.993139  
434.500000	1.965907  
435.000000	1.917849  
435.500000	1.855878  
436.000000	1.796700  
436.500000	1.759007  
437.000000	1.742203  
437.500000	1.725178  
438.000000	1.699172  
438.500000	1.670872  
439.000000	1.657910  
439.500000	1.652517  
440.000000	1.637893  
440.500000	1.626710  
441.000000	1.631842  
441.500000	1.648213  
442.000000	1.657298  
442.500000	1.657311  
443.000000	1.634997  
443.500000	1.607300  
444.000000	1.581963  
444.500000	1.561319  

