PE FL                   SPECTRUM    ASCII       PEDS        1.60        
  -1
PP9051~1
23/10/10
15:38:24.00
23/10/10
15:38:24.00


444.500000
1









LS55
5.00
5.00
5.00
SCAN
1
20
100
100
0
500
0
2
0
1
7
ON
500 450 
1 0 0
#HDR
-1
-1
#GR
NM

0.00002384185791015625
0.0
250.000000
0.500000
390
8
56.111262
-4.065532
#DATA
250.000000	-0.000000 
250.500000	-0.434180 
251.000000	-0.826139 
251.500000	-1.004776 
252.000000	-1.460887 
252.500000	-2.384597 
253.000000	-2.915726 
253.500000	-2.849475 
254.000000	-2.828896 
254.500000	-2.478743 
255.000000	-2.137570 
255.500000	-1.752390 
256.000000	-1.129267 
256.500000	-0.618428 
257.000000	-0.683588 
257.500000	-0.932759 
258.000000	-1.287475 
258.500000	-2.031518 
259.000000	-2.528101 
259.500000	-3.300774 
260.000000	-3.768995 
260.500000	-4.065532 
261.000000	-3.760997 
261.500000	-3.211671 
262.000000	-2.554596 
262.500000	-1.916601 
263.000000	-1.442761 
263.500000	-0.824750 
264.000000	-0.739860 
264.500000	-0.594292 
265.000000	-0.921036 
265.500000	-1.098783 
266.000000	-1.223719 
266.500000	-1.517207 
267.000000	-1.937037 
267.500000	-2.197853 
268.000000	-2.072922 
268.500000	-1.967588 
269.000000	-1.618109 
269.500000	-1.634361 
270.000000	-1.538303 
270.500000	-1.630124 
271.000000	-1.965987 
271.500000	-2.129763 
272.000000	-2.214712 
272.500000	-1.985474 
273.000000	-1.393193 
273.500000	-0.617931 
274.000000	0.069262  
274.500000	0.620794  
275.000000	0.585752  
275.500000	0.007167  
276.000000	-0.674645 
276.500000	-1.725359 
277.000000	-2.508123 
277.500000	-2.918458 
278.000000	-3.087483 
278.500000	-3.010651 
279.000000	-2.927300 
279.500000	-2.830624 
280.000000	-2.671277 
280.500000	-2.321621 
281.000000	-2.204069 
281.500000	-2.065565 
282.000000	-1.753268 
282.500000	-1.414839 
283.000000	-1.094130 
283.500000	-1.274412 
284.000000	-1.609518 
284.500000	-2.119757 
285.000000	-2.277456 
285.500000	-2.461384 
286.000000	-2.601131 
286.500000	-2.363750 
287.000000	-1.816001 
287.500000	-1.159832 
288.000000	-0.746553 
288.500000	-0.427601 
289.000000	-0.802811 
289.500000	-1.157526 
290.000000	-1.658759 
290.500000	-2.311347 
291.000000	-2.546881 
291.500000	-2.397989 
292.000000	-2.104735 
292.500000	-1.491652 
293.000000	-0.633717 
293.500000	-0.304994 
294.000000	-0.217546 
294.500000	-0.558462 
295.000000	-1.465201 
295.500000	-2.300163 
296.000000	-2.862478 
296.500000	-3.507078 
297.000000	-3.833962 
297.500000	-3.765460 
298.000000	-3.665883 
298.500000	-3.479876 
299.000000	-3.194724 
299.500000	-3.208985 
300.000000	-2.969057 
300.500000	-2.408010 
301.000000	-1.945474 
301.500000	-1.366777 
302.000000	-0.811008 
302.500000	-0.519775 
303.000000	-0.419641 
303.500000	-0.515425 
304.000000	-1.090407 
304.500000	-1.643054 
305.000000	-1.971160 
305.500000	-2.153976 
306.000000	-2.090655 
306.500000	-1.823056 
307.000000	-1.617326 
307.500000	-1.168313 
308.000000	-0.838313 
308.500000	-0.904551 
309.000000	-1.144876 
309.500000	-1.451866 
310.000000	-1.764815 
310.500000	-1.908980 
311.000000	-1.766062 
311.500000	-1.530321 
312.000000	-0.826578 
312.500000	-0.142283 
313.000000	0.634061  
313.500000	1.295735  
314.000000	1.829872  
314.500000	2.274762  
315.000000	2.733727  
315.500000	3.358194  
316.000000	3.825751  
316.500000	4.477156  
317.000000	4.911031  
317.500000	5.474725  
318.000000	5.865963  
318.500000	6.163180  
319.000000	6.456629  
319.500000	6.777677  
320.000000	7.200039  
320.500000	7.602877  
321.000000	8.055324  
321.500000	8.200045  
322.000000	8.335544  
322.500000	8.234387  
323.000000	8.051456  
323.500000	8.044729  
324.000000	8.205635  
324.500000	8.563088  
325.000000	9.087791  
325.500000	9.816057  
326.000000	10.368440 
326.500000	10.761926 
327.000000	10.923999 
327.500000	11.003128 
328.000000	11.189511 
328.500000	11.395854 
329.000000	11.557999 
329.500000	11.710019 
330.000000	12.153508 
330.500000	12.471623 
331.000000	12.564121 
331.500000	12.449952 
332.000000	12.376824 
332.500000	12.302100 
333.000000	12.318886 
333.500000	12.354147 
334.000000	12.262047 
334.500000	12.587228 
335.000000	12.752182 
335.500000	12.739849 
336.000000	12.612437 
336.500000	12.672416 
337.000000	12.756184 
337.500000	13.217221 
338.000000	13.841496 
338.500000	14.463528 
339.000000	15.479854 
339.500000	16.404186 
340.000000	17.113155 
340.500000	17.658306 
341.000000	18.088110 
341.500000	18.069853 
342.000000	18.081853 
342.500000	17.860797 
343.000000	17.347930 
343.500000	16.849313 
344.000000	16.213994 
344.500000	15.496879 
345.000000	15.077110 
345.500000	15.072437 
346.000000	15.172667 
346.500000	15.801180 
347.000000	16.817563 
347.500000	18.266992 
348.000000	19.996217 
348.500000	21.627534 
349.000000	23.022060 
349.500000	24.337528 
350.000000	25.578071 
350.500000	26.464087 
351.000000	27.099538 
351.500000	27.405634 
352.000000	27.669041 
352.500000	28.305867 
353.000000	29.010498 
353.500000	29.846770 
354.000000	30.923930 
354.500000	32.252869 
355.000000	34.060456 
355.500000	36.151934 
356.000000	38.343167 
356.500000	40.562691 
357.000000	42.714292 
357.500000	44.787599 
358.000000	46.791360 
358.500000	48.484507 
359.000000	49.672831 
359.500000	50.535278 
360.000000	51.151521 
360.500000	51.901253 
361.000000	52.806861 
361.500000	53.564931 
362.000000	54.300442 
362.500000	55.087807 
363.000000	55.713541 
363.500000	56.111262 
364.000000	56.012210 
364.500000	55.101377 
365.000000	54.005522 
365.500000	53.058281 
366.000000	51.960780 
366.500000	50.804816 
367.000000	49.828694 
367.500000	48.883224 
368.000000	48.359562 
368.500000	48.006161 
369.000000	47.304101 
369.500000	46.657392 
370.000000	46.447539 
370.500000	46.661679 
371.000000	46.954077 
371.500000	47.373639 
372.000000	47.690058 
372.500000	47.962622 
373.000000	48.335595 
373.500000	48.347650 
374.000000	48.134323 
374.500000	48.210302 
375.000000	48.732711 
375.500000	49.348588 
376.000000	50.165973 
376.500000	50.962665 
377.000000	51.304555 
377.500000	51.633717 
378.000000	51.534374 
378.500000	51.003507 
379.000000	50.179136 
379.500000	49.453262 
380.000000	48.717040 
380.500000	48.355751 
381.000000	48.409045 
381.500000	48.238981 
382.000000	48.161084 
382.500000	48.037085 
383.000000	48.150219 
383.500000	48.174720 
384.000000	47.934523 
384.500000	47.052184 
385.000000	45.987633 
385.500000	44.958430 
386.000000	43.778821 
386.500000	42.410245 
387.000000	40.661349 
387.500000	39.193716 
388.000000	38.047255 
388.500000	37.063886 
389.000000	35.756194 
389.500000	34.353265 
390.000000	32.864022 
390.500000	31.579366 
391.000000	30.145247 
391.500000	28.171473 
392.000000	26.080017 
392.500000	24.185458 
393.000000	22.564156 
393.500000	21.073755 
394.000000	19.967977 
394.500000	19.173069 
395.000000	18.968667 
395.500000	19.223381 
396.000000	19.549732 
396.500000	19.886440 
397.000000	20.080016 
397.500000	20.052707 
398.000000	19.664237 
398.500000	19.097815 
399.000000	18.346418 
399.500000	17.522927 
400.000000	16.718149 
400.500000	16.003667 
401.000000	15.419116 
401.500000	14.939602 
402.000000	14.623299 
402.500000	14.383674 
403.000000	14.300100 
403.500000	14.349686 
404.000000	14.387014 
404.500000	14.338582 
405.000000	14.217220 
405.500000	13.982131 
406.000000	13.546547 
406.500000	12.959383 
407.000000	12.250390 
407.500000	11.536422 
408.000000	10.907559 
408.500000	10.422061 
409.000000	10.128264 
409.500000	10.097474 
410.000000	10.207103 
410.500000	10.340400 
411.000000	10.507835 
411.500000	10.634852 
412.000000	10.619805 
412.500000	10.514089 
413.000000	10.390758 
413.500000	10.233485 
414.000000	10.156165 
414.500000	10.141177 
415.000000	10.208660 
415.500000	10.347792 
416.000000	10.589431 
416.500000	10.797240 
417.000000	11.036080 
417.500000	11.384331 
418.000000	11.804342 
418.500000	12.285419 
419.000000	12.699579 
419.500000	13.071330 
420.000000	13.481010 
420.500000	14.001785 
421.000000	14.392712 
421.500000	14.734975 
422.000000	15.124854 
422.500000	15.485701 
423.000000	15.909103 
423.500000	16.280992 
424.000000	16.575916 
424.500000	16.910351 
425.000000	17.450279 
425.500000	17.995332 
426.000000	18.616588 
426.500000	19.201153 
427.000000	19.540496 
427.500000	19.908501 
428.000000	20.231993 
428.500000	20.363228 
429.000000	20.463959 
429.500000	20.685718 
430.000000	21.130989 
430.500000	22.081883 
431.000000	23.456866 
431.500000	24.953565 
432.000000	26.745995 
432.500000	28.962983 
433.000000	31.334550 
433.500000	33.710616 
434.000000	35.874317 
434.500000	37.746072 
435.000000	39.422208 
435.500000	40.911247 
436.000000	41.783731 
436.500000	42.090205 
437.000000	42.213396 
437.500000	42.177311 
438.000000	42.183162 
438.500000	42.153259 
439.000000	42.177799 
439.500000	42.247779 
440.000000	42.963537 
440.500000	43.963355 
441.000000	45.044639 
441.500000	46.307616 
442.000000	47.744009 
442.500000	49.263388 
443.000000	50.857452 
443.500000	52.209089 
444.000000	52.912271 
444.500000	53.717407 

