PE FL                   SPECTRUM    ASCII       PEDS        1.60        
  -1
PP9061~1
23/10/10
15:39:05.00
23/10/10
15:39:05.00


444.500000
1









LS55
10.00
5.00
5.00
SCAN
1
20
100
100
0
500
0
2
0
1
7
ON
500 450 
1 0 0
#HDR
-1
-1
#GR
NM

0.00002384185791015625
0.0
250.000000
0.500000
390
8
3.615731
-4.602457
#DATA
250.000000	2.787999  
250.500000	0.997845  
251.000000	-0.507369 
251.500000	-1.337552 
252.000000	-1.957016 
252.500000	-2.693517 
253.000000	-2.892181 
253.500000	-2.652927 
254.000000	-2.607203 
254.500000	-2.718214 
255.000000	-3.082145 
255.500000	-3.590830 
256.000000	-3.786188 
256.500000	-3.785344 
257.000000	-3.819335 
257.500000	-3.638632 
258.000000	-3.064676 
258.500000	-2.485979 
259.000000	-1.750000 
259.500000	-1.145505 
260.000000	-1.046636 
260.500000	-1.214086 
261.000000	-1.672168 
261.500000	-2.432730 
262.000000	-3.266348 
262.500000	-4.045929 
263.000000	-4.550047 
263.500000	-4.602457 
264.000000	-4.299666 
264.500000	-3.906436 
265.000000	-3.437837 
265.500000	-3.102675 
266.000000	-2.971308 
266.500000	-3.204891 
267.000000	-3.548000 
267.500000	-3.995968 
268.000000	-4.268112 
268.500000	-4.306792 
269.000000	-4.181195 
269.500000	-3.695481 
270.000000	-2.941968 
270.500000	-2.290824 
271.000000	-2.006051 
271.500000	-1.748475 
272.000000	-1.770099 
272.500000	-1.867461 
273.000000	-2.008179 
273.500000	-2.338617 
274.000000	-2.588590 
274.500000	-2.798816 
275.000000	-2.985104 
275.500000	-3.526307 
276.000000	-3.796619 
276.500000	-4.068566 
277.000000	-4.077915 
277.500000	-3.957781 
278.000000	-3.675811 
278.500000	-3.165077 
279.000000	-2.661360 
279.500000	-2.414829 
280.000000	-2.424797 
280.500000	-2.512052 
281.000000	-2.784172 
281.500000	-2.797006 
282.000000	-2.733968 
282.500000	-2.293745 
283.000000	-1.463094 
283.500000	-0.554151 
284.000000	0.108178  
284.500000	0.613265  
285.000000	0.888975  
285.500000	0.650143  
286.000000	0.056814  
286.500000	-0.749491 
287.000000	-1.583015 
287.500000	-2.189338 
288.000000	-2.536031 
288.500000	-2.858836 
289.000000	-2.951945 
289.500000	-2.450350 
290.000000	-1.752985 
290.500000	-1.128847 
291.000000	-0.517434 
291.500000	-0.057170 
292.000000	0.139155  
292.500000	0.204235  
293.000000	-0.151504 
293.500000	-0.973168 
294.000000	-1.564628 
294.500000	-1.866273 
295.000000	-2.171297 
295.500000	-2.163614 
296.000000	-1.921418 
296.500000	-1.770051 
297.000000	-1.505638 
297.500000	-1.407215 
298.000000	-1.798940 
298.500000	-2.244347 
299.000000	-2.728177 
299.500000	-3.473447 
300.000000	-4.037077 
300.500000	-4.133805 
301.000000	-3.952912 
301.500000	-3.284719 
302.000000	-2.451929 
302.500000	-1.636954 
303.000000	-0.725701 
303.500000	0.150771  
304.000000	0.313098  
304.500000	0.140108  
305.000000	-0.180025 
305.500000	-0.501550 
306.000000	-0.725087 
306.500000	-0.923823 
307.000000	-0.963077 
307.500000	-0.701870 
308.000000	-0.254836 
308.500000	0.031566  
309.000000	0.164623  
309.500000	0.153246  
310.000000	0.262070  
310.500000	0.464212  
311.000000	0.560208  
311.500000	0.596121  
312.000000	0.734568  
312.500000	0.810498  
313.000000	0.896217  
313.500000	1.087289  
314.000000	1.205018  
314.500000	1.519787  
315.000000	1.882356  
315.500000	2.342807  
316.000000	2.783158  
316.500000	3.047577  
317.000000	3.187023  
317.500000	3.050368  
318.000000	2.952788  
318.500000	2.667849  
319.000000	2.305035  
319.500000	1.982243  
320.000000	1.850640  
320.500000	1.818272  
321.000000	1.771313  
321.500000	1.978377  
322.000000	2.107630  
322.500000	2.324200  
323.000000	2.518836  
323.500000	2.547702  
324.000000	2.475900  
324.500000	2.248434  
325.000000	1.851521  
325.500000	1.147778  
326.000000	0.565542  
326.500000	0.059793  
327.000000	-0.226692 
327.500000	-0.181819 
328.000000	-0.013337 
328.500000	0.522286  
329.000000	1.164263  
329.500000	1.771787  
330.000000	2.290670  
330.500000	2.471187  
331.000000	2.572016  
331.500000	2.642146  
332.000000	2.699879  
332.500000	2.636390  
333.000000	2.779713  
333.500000	2.922835  
334.000000	3.149707  
334.500000	3.377273  
335.000000	3.374762  
335.500000	3.254238  
336.000000	3.132684  
336.500000	2.865391  
337.000000	2.370502  
337.500000	2.109099  
338.000000	1.870993  
338.500000	1.836509  
339.000000	2.006341  
339.500000	2.142348  
340.000000	2.338723  
340.500000	2.608608  
341.000000	2.783121  
341.500000	2.738259  
342.000000	2.739631  
342.500000	2.576723  
343.000000	2.336860  
343.500000	2.083849  
344.000000	1.821384  
344.500000	1.708207  
345.000000	1.616234  
345.500000	1.562049  
346.000000	1.562065  
346.500000	1.797513  
347.000000	2.125210  
347.500000	2.382526  
348.000000	2.644858  
348.500000	2.781090  
349.000000	2.900057  
349.500000	2.790989  
350.000000	2.596916  
350.500000	2.378378  
351.000000	2.178023  
351.500000	2.111269  
352.000000	1.966406  
352.500000	1.857819  
353.000000	1.745035  
353.500000	1.563710  
354.000000	1.257638  
354.500000	1.086371  
355.000000	1.042798  
355.500000	1.183425  
356.000000	1.638827  
356.500000	2.125268  
357.000000	2.685546  
357.500000	3.219554  
358.000000	3.583104  
358.500000	3.615731  
359.000000	3.527399  
359.500000	3.248836  
360.000000	2.972864  
360.500000	2.820328  
361.000000	2.646745  
361.500000	2.528150  
362.000000	2.457793  
362.500000	2.411406  
363.000000	2.323871  
363.500000	2.277682  
364.000000	2.146238  
364.500000	2.060169  
365.000000	2.036523  
365.500000	2.028277  
366.000000	2.095917  
366.500000	2.175864  
367.000000	2.271392  
367.500000	2.366183  
368.000000	2.439586  
368.500000	2.490410  
369.000000	2.503004  
369.500000	2.472776  
370.000000	2.365325  
370.500000	2.240927  
371.000000	2.100465  
371.500000	1.976782  
372.000000	1.889264  
372.500000	1.931746  
373.000000	2.059210  
373.500000	2.191803  
374.000000	2.341435  
374.500000	2.463838  
375.000000	2.590416  
375.500000	2.641438  
376.000000	2.628676  
376.500000	2.463081  
377.000000	2.338035  
377.500000	2.234591  
378.000000	2.049683  
378.500000	1.854014  
379.000000	1.718558  
379.500000	1.701441  
380.000000	1.676664  
380.500000	1.711467  
381.000000	1.689031  
381.500000	1.703809  
382.000000	1.826131  
382.500000	1.969649  
383.000000	2.072277  
383.500000	2.195931  
384.000000	2.357708  
384.500000	2.451190  
385.000000	2.509963  
385.500000	2.494467  
386.000000	2.386484  
386.500000	2.297272  
387.000000	2.273828  
387.500000	2.217394  
388.000000	2.145594  
388.500000	2.131906  
389.000000	2.112045  
389.500000	2.044375  
390.000000	1.951113  
390.500000	1.797041  
391.000000	1.619993  
391.500000	1.547119  
392.000000	1.560269  
392.500000	1.616027  
393.000000	1.737330  
393.500000	1.940595  
394.000000	2.168311  
394.500000	2.378113  
395.000000	2.495369  
395.500000	2.523685  
396.000000	2.515893  
396.500000	2.488766  
397.000000	2.390020  
397.500000	2.259312  
398.000000	2.125926  
398.500000	2.030474  
399.000000	2.003572  
399.500000	1.965719  
400.000000	1.890901  
400.500000	1.817173  
401.000000	1.777864  
401.500000	1.742383  
402.000000	1.721501  
402.500000	1.661526  
403.000000	1.636952  
403.500000	1.664757  
404.000000	1.723240  
404.500000	1.757425  
405.000000	1.806134  
405.500000	1.885424  
406.000000	2.008135  
406.500000	2.162829  
407.000000	2.296887  
407.500000	2.395399  
408.000000	2.450478  
408.500000	2.454434  
409.000000	2.373636  
409.500000	2.219653  
410.000000	2.038929  
410.500000	1.888830  
411.000000	1.792615  
411.500000	1.773607  
412.000000	1.806762  
412.500000	1.874153  
413.000000	1.939585  
413.500000	2.017375  
414.000000	2.072278  
414.500000	2.091784  
415.000000	2.082731  
415.500000	2.047833  
416.000000	2.065030  
416.500000	2.099854  
417.000000	2.110553  
417.500000	2.099017  
418.000000	2.092884  
418.500000	2.072784  
419.000000	2.031687  
419.500000	1.968102  
420.000000	1.885291  
420.500000	1.834772  
421.000000	1.803107  
421.500000	1.747048  
422.000000	1.680153  
422.500000	1.631880  
423.000000	1.591194  
423.500000	1.561878  
424.000000	1.564209  
424.500000	1.574438  
425.000000	1.616252  
425.500000	1.689922  
426.000000	1.762798  
426.500000	1.824389  
427.000000	1.887527  
427.500000	1.915932  
428.000000	1.886226  
428.500000	1.829607  
429.000000	1.760409  
429.500000	1.688080  
430.000000	1.630717  
430.500000	1.589266  
431.000000	1.575284  
431.500000	1.597769  
432.000000	1.647273  
432.500000	1.695522  
433.000000	1.730897  
433.500000	1.742081  
434.000000	1.710986  
434.500000	1.659830  
435.000000	1.581590  
435.500000	1.508939  
436.000000	1.442249  
436.500000	1.426407  
437.000000	1.440735  
437.500000	1.465042  
438.000000	1.502166  
438.500000	1.529286  
439.000000	1.551945  
439.500000	1.556109  
440.000000	1.556048  
440.500000	1.540480  
441.000000	1.545125  
441.500000	1.566905  
442.000000	1.577384  
442.500000	1.586468  
443.000000	1.586738  
443.500000	1.581338  
444.000000	1.569453  
444.500000	1.548572  

