PE FL                   SPECTRUM    ASCII       PEDS        1.60        
  -1
PP9091~1
23/10/10
15:41:06.00
23/10/10
15:41:06.00


444.500000
1









LS55
25.00
5.00
5.00
SCAN
1
20
100
100
0
500
0
2
0
1
7
ON
500 450 
1 0 0
#HDR
-1
-1
#GR
NM

0.00002384185791015625
0.0
250.000000
0.500000
390
8
5.051040
-4.503790
#DATA
250.000000	-3.561000 
250.500000	-2.141937 
251.000000	-1.223649 
251.500000	-0.815234 
252.000000	-1.051312 
252.500000	-1.916792 
253.000000	-2.730298 
253.500000	-3.504782 
254.000000	-4.271354 
254.500000	-4.503790 
255.000000	-4.303030 
255.500000	-3.964252 
256.000000	-3.339306 
256.500000	-2.767265 
257.000000	-2.413505 
257.500000	-2.081426 
258.000000	-1.601273 
258.500000	-1.595559 
259.000000	-1.716148 
259.500000	-1.648583 
260.000000	-1.584946 
260.500000	-1.424557 
261.000000	-1.227617 
261.500000	-0.932806 
262.000000	-0.477133 
262.500000	0.288377  
263.000000	0.626511  
263.500000	0.567830  
264.000000	0.366342  
264.500000	-0.045853 
265.000000	-0.815398 
265.500000	-1.748209 
266.000000	-2.590648 
266.500000	-3.198604 
267.000000	-3.441490 
267.500000	-3.600965 
268.000000	-3.705258 
268.500000	-3.725218 
269.000000	-3.368786 
269.500000	-3.067960 
270.000000	-3.185952 
270.500000	-3.259645 
271.000000	-3.231521 
271.500000	-3.081879 
272.000000	-2.903401 
272.500000	-2.453617 
273.000000	-2.059452 
273.500000	-1.492282 
274.000000	-0.902113 
274.500000	-0.837377 
275.000000	-1.048106 
275.500000	-1.467531 
276.000000	-2.031479 
276.500000	-2.765520 
277.000000	-3.366858 
277.500000	-3.867233 
278.000000	-4.200513 
278.500000	-4.156187 
279.000000	-4.113216 
279.500000	-3.946268 
280.000000	-3.755037 
280.500000	-3.629062 
281.000000	-3.513219 
281.500000	-3.288841 
282.000000	-2.963158 
282.500000	-2.780780 
283.000000	-2.558409 
283.500000	-2.416640 
284.000000	-2.210816 
284.500000	-1.921143 
285.000000	-1.893643 
285.500000	-1.800288 
286.000000	-1.517414 
286.500000	-1.154992 
287.000000	-0.973937 
287.500000	-0.783674 
288.000000	-0.919459 
288.500000	-1.033285 
289.000000	-0.998924 
289.500000	-1.168807 
290.000000	-1.357813 
290.500000	-1.556156 
291.000000	-1.808848 
291.500000	-2.018839 
292.000000	-1.985157 
292.500000	-2.206276 
293.000000	-2.356663 
293.500000	-2.237189 
294.000000	-2.079113 
294.500000	-2.042089 
295.000000	-2.082418 
295.500000	-2.342939 
296.000000	-2.715815 
296.500000	-2.711285 
297.000000	-2.559210 
297.500000	-2.089905 
298.000000	-1.337370 
298.500000	-0.345574 
299.000000	0.620071  
299.500000	1.257407  
300.000000	1.500621  
300.500000	1.177249  
301.000000	0.445786  
301.500000	-0.403778 
302.000000	-1.195557 
302.500000	-1.454345 
303.000000	-1.284314 
303.500000	-0.726109 
304.000000	0.204286  
304.500000	1.368056  
305.000000	2.513192  
305.500000	3.406988  
306.000000	4.135650  
306.500000	4.446316  
307.000000	4.589730  
307.500000	4.401999  
308.000000	3.896680  
308.500000	3.491593  
309.000000	3.227564  
309.500000	3.171464  
310.000000	3.282237  
310.500000	3.409118  
311.000000	3.566793  
311.500000	3.893094  
312.000000	4.198537  
312.500000	4.001540  
313.000000	3.869710  
313.500000	3.822866  
314.000000	3.894162  
314.500000	4.181879  
315.000000	4.259816  
315.500000	4.486980  
316.000000	4.784143  
316.500000	5.051040  
317.000000	4.944924  
317.500000	4.708483  
318.000000	4.424527  
318.500000	4.126509  
319.000000	4.014306  
319.500000	3.944026  
320.000000	3.983815  
320.500000	4.173676  
321.000000	4.185509  
321.500000	4.064761  
322.000000	3.949981  
322.500000	3.771434  
323.000000	3.359557  
323.500000	2.726928  
324.000000	2.066438  
324.500000	1.601806  
325.000000	1.309903  
325.500000	0.984495  
326.000000	0.683572  
326.500000	0.517913  
327.000000	0.707337  
327.500000	1.078394  
328.000000	1.286694  
328.500000	1.446955  
329.000000	1.680939  
329.500000	1.900156  
330.000000	2.022201  
330.500000	1.987528  
331.000000	1.734280  
331.500000	1.616215  
332.000000	1.609175  
332.500000	1.445092  
333.000000	1.204308  
333.500000	1.082057  
334.000000	1.006448  
334.500000	0.941828  
335.000000	0.924076  
335.500000	0.784035  
336.000000	0.762232  
336.500000	0.847217  
337.000000	0.747419  
337.500000	0.580951  
338.000000	0.467144  
338.500000	0.460281  
339.000000	0.461918  
339.500000	0.562597  
340.000000	0.805920  
340.500000	1.144698  
341.000000	1.522341  
341.500000	1.735906  
342.000000	1.701826  
342.500000	1.639328  
343.000000	1.558407  
343.500000	1.493810  
344.000000	1.442982  
344.500000	1.491301  
345.000000	1.617341  
345.500000	1.831483  
346.000000	2.038350  
346.500000	2.097215  
347.000000	2.120218  
347.500000	1.941770  
348.000000	1.805704  
348.500000	1.719374  
349.000000	1.659537  
349.500000	1.602519  
350.000000	1.712399  
350.500000	1.923020  
351.000000	2.175759  
351.500000	2.476057  
352.000000	2.591540  
352.500000	2.703147  
353.000000	2.907544  
353.500000	3.003994  
354.000000	2.924019  
354.500000	2.855424  
355.000000	2.743068  
355.500000	2.676826  
356.000000	2.617298  
356.500000	2.419133  
357.000000	2.215954  
357.500000	2.079153  
358.000000	1.918436  
358.500000	1.687360  
359.000000	1.584212  
359.500000	1.550250  
360.000000	1.592665  
360.500000	1.663013  
361.000000	1.753573  
361.500000	1.897042  
362.000000	2.096650  
362.500000	2.295443  
363.000000	2.435372  
363.500000	2.598552  
364.000000	2.725321  
364.500000	2.753069  
365.000000	2.725513  
365.500000	2.706485  
366.000000	2.707192  
366.500000	2.697459  
367.000000	2.761196  
367.500000	2.811511  
368.000000	2.845900  
368.500000	2.850539  
369.000000	2.696549  
369.500000	2.397217  
370.000000	2.078650  
370.500000	1.769085  
371.000000	1.503720  
371.500000	1.424298  
372.000000	1.572248  
372.500000	1.818658  
373.000000	2.129683  
373.500000	2.382530  
374.000000	2.525858  
374.500000	2.646969  
375.000000	2.654928  
375.500000	2.600260  
376.000000	2.524982  
376.500000	2.511699  
377.000000	2.506286  
377.500000	2.558328  
378.000000	2.632774  
378.500000	2.622781  
379.000000	2.675712  
379.500000	2.648693  
380.000000	2.605536  
380.500000	2.556643  
381.000000	2.525964  
381.500000	2.510580  
382.000000	2.513817  
382.500000	2.503457  
383.000000	2.455546  
383.500000	2.474112  
384.000000	2.477978  
384.500000	2.464556  
385.000000	2.463170  
385.500000	2.440342  
386.000000	2.417925  
386.500000	2.398430  
387.000000	2.371380  
387.500000	2.300258  
388.000000	2.233925  
388.500000	2.182854  
389.000000	2.137290  
389.500000	2.098566  
390.000000	2.040641  
390.500000	1.985179  
391.000000	1.954042  
391.500000	1.961798  
392.000000	1.998855  
392.500000	2.021124  
393.000000	2.048120  
393.500000	2.120392  
394.000000	2.229704  
394.500000	2.309634  
395.000000	2.322798  
395.500000	2.284349  
396.000000	2.254875  
396.500000	2.278988  
397.000000	2.281105  
397.500000	2.301192  
398.000000	2.342181  
398.500000	2.407968  
399.000000	2.443106  
399.500000	2.446351  
400.000000	2.415860  
400.500000	2.360305  
401.000000	2.329269  
401.500000	2.253947  
402.000000	2.239107  
402.500000	2.230151  
403.000000	2.256118  
403.500000	2.240056  
404.000000	2.179966  
404.500000	2.079351  
405.000000	1.982877  
405.500000	1.916566  
406.000000	1.847084  
406.500000	1.876901  
407.000000	1.884857  
407.500000	1.922490  
408.000000	1.979586  
408.500000	2.020015  
409.000000	2.043230  
409.500000	2.064910  
410.000000	2.101206  
410.500000	2.138337  
411.000000	2.232443  
411.500000	2.246149  
412.000000	2.242513  
412.500000	2.231643  
413.000000	2.195700  
413.500000	2.144769  
414.000000	2.089978  
414.500000	2.079608  
415.000000	2.078120  
415.500000	2.134980  
416.000000	2.159655  
416.500000	2.145163  
417.000000	2.118666  
417.500000	2.044969  
418.000000	1.954226  
418.500000	1.866606  
419.000000	1.832286  
419.500000	1.781730  
420.000000	1.754836  
420.500000	1.725510  
421.000000	1.684126  
421.500000	1.654032  
422.000000	1.587882  
422.500000	1.524868  
423.000000	1.498049  
423.500000	1.528539  
424.000000	1.537514  
424.500000	1.540526  
425.000000	1.541638  
425.500000	1.513064  
426.000000	1.463387  
426.500000	1.358946  
427.000000	1.242569  
427.500000	1.157649  
428.000000	1.140060  
428.500000	1.163202  
429.000000	1.201358  
429.500000	1.283736  
430.000000	1.399200  
430.500000	1.520200  
431.000000	1.604544  
431.500000	1.656877  
432.000000	1.663580  
432.500000	1.642748  
433.000000	1.612066  
433.500000	1.549009  
434.000000	1.495640  
434.500000	1.454362  
435.000000	1.422126  
435.500000	1.392636  
436.000000	1.396075  
436.500000	1.393535  
437.000000	1.367603  
437.500000	1.359464  
438.000000	1.345475  
438.500000	1.336942  
439.000000	1.343027  
439.500000	1.354702  
440.000000	1.375519  
440.500000	1.412134  
441.000000	1.447244  
441.500000	1.445450  
442.000000	1.435557  
442.500000	1.410576  
443.000000	1.366314  
443.500000	1.333766  
444.000000	1.309821  
444.500000	1.310918  

