PE FL                   SPECTRUM    ASCII       PEDS        1.60        
  -1
PP90C1~1
23/10/10
15:43:08.00
23/10/10
15:43:08.00


444.500000
1









LS55
40.00
5.00
5.00
SCAN
1
20
100
100
0
500
0
2
0
1
7
ON
500 450 
1 0 0
#HDR
-1
-1
#GR
NM

0.00002384185791015625
0.0
250.000000
0.500000
390
8
6.800210
-5.000000
#DATA
250.000000	-5.000000 
250.500000	-3.702987 
251.000000	-2.663609 
251.500000	-2.343561 
252.000000	-2.510516 
252.500000	-2.906272 
253.000000	-3.553034 
253.500000	-4.348163 
254.000000	-4.701319 
254.500000	-4.746776 
255.000000	-4.568082 
255.500000	-3.890224 
256.000000	-3.495240 
256.500000	-3.021666 
257.000000	-2.393356 
257.500000	-1.576971 
258.000000	-1.105958 
258.500000	-0.733890 
259.000000	-0.414747 
259.500000	-0.526890 
260.000000	-0.511045 
260.500000	-1.067778 
261.000000	-1.609912 
261.500000	-2.210929 
262.000000	-2.168777 
262.500000	-2.027810 
263.000000	-1.711240 
263.500000	-1.104632 
264.000000	-0.714083 
264.500000	-0.246563 
265.000000	-0.232098 
265.500000	-0.495609 
266.000000	-1.403813 
266.500000	-2.327588 
267.000000	-3.247866 
267.500000	-4.027958 
268.000000	-4.444261 
268.500000	-4.642710 
269.000000	-4.595280 
269.500000	-4.251129 
270.000000	-3.656736 
270.500000	-3.300182 
271.000000	-3.070700 
271.500000	-3.089665 
272.000000	-3.250247 
272.500000	-3.312506 
273.000000	-3.384182 
273.500000	-3.627264 
274.000000	-3.791273 
274.500000	-3.844621 
275.000000	-3.908219 
275.500000	-3.979219 
276.000000	-4.022900 
276.500000	-4.129671 
277.000000	-4.048086 
277.500000	-4.042275 
278.000000	-3.919373 
278.500000	-3.676659 
279.000000	-3.337563 
279.500000	-3.146179 
280.000000	-2.917795 
280.500000	-2.699461 
281.000000	-2.578551 
281.500000	-2.443986 
282.000000	-2.406753 
282.500000	-2.175279 
283.000000	-1.862592 
283.500000	-1.663466 
284.000000	-1.639190 
284.500000	-1.525107 
285.000000	-1.788632 
285.500000	-1.964819 
286.000000	-2.083710 
286.500000	-2.260884 
287.000000	-2.254904 
287.500000	-1.994657 
288.000000	-1.691450 
288.500000	-1.580818 
289.000000	-1.208411 
289.500000	-1.007700 
290.000000	-0.793874 
290.500000	-0.684717 
291.000000	-0.617402 
291.500000	-0.673123 
292.000000	-0.865481 
292.500000	-0.898067 
293.000000	-1.127875 
293.500000	-1.261245 
294.000000	-1.261625 
294.500000	-1.191412 
295.000000	-0.916694 
295.500000	-0.280700 
296.000000	0.492375  
296.500000	1.035129  
297.000000	1.777096  
297.500000	2.245901  
298.000000	2.442749  
298.500000	2.615168  
299.000000	2.521642  
299.500000	2.508691  
300.000000	2.637292  
300.500000	2.899188  
301.000000	3.059424  
301.500000	3.532041  
302.000000	4.060326  
302.500000	4.562348  
303.000000	4.898477  
303.500000	5.011401  
304.000000	5.202702  
304.500000	5.368890  
305.000000	5.453136  
305.500000	5.304793  
306.000000	5.438495  
306.500000	5.587247  
307.000000	5.901878  
307.500000	5.860374  
308.000000	5.622680  
308.500000	5.402190  
309.000000	5.289590  
309.500000	5.146847  
310.000000	4.660914  
310.500000	4.423012  
311.000000	4.335398  
311.500000	4.499700  
312.000000	4.591603  
312.500000	4.773023  
313.000000	5.013254  
313.500000	5.464752  
314.000000	6.106688  
314.500000	6.442605  
315.000000	6.718714  
315.500000	6.791057  
316.000000	6.800210  
316.500000	6.746316  
317.000000	6.449780  
317.500000	6.005894  
318.000000	5.648541  
318.500000	5.555297  
319.000000	5.372290  
319.500000	5.158472  
320.000000	4.750179  
320.500000	4.215108  
321.000000	3.827490  
321.500000	3.422328  
322.000000	3.017811  
322.500000	2.595259  
323.000000	2.500922  
323.500000	2.534607  
324.000000	2.867908  
324.500000	3.256158  
325.000000	3.365392  
325.500000	3.514337  
326.000000	3.618363  
326.500000	3.607423  
327.000000	3.447436  
327.500000	3.367250  
328.000000	3.056460  
328.500000	2.755385  
329.000000	2.597843  
329.500000	2.265568  
330.000000	2.053457  
330.500000	1.896438  
331.000000	1.903422  
331.500000	2.002452  
332.000000	2.348048  
332.500000	2.709549  
333.000000	2.911555  
333.500000	3.172251  
334.000000	3.259630  
334.500000	3.334189  
335.000000	3.359312  
335.500000	3.317562  
336.000000	3.184747  
336.500000	3.053499  
337.000000	3.030808  
337.500000	3.027070  
338.000000	2.994019  
338.500000	2.937101  
339.000000	2.863755  
339.500000	2.973080  
340.000000	3.230401  
340.500000	3.542162  
341.000000	3.771819  
341.500000	3.997232  
342.000000	4.065679  
342.500000	4.036149  
343.000000	3.957549  
343.500000	3.747926  
344.000000	3.652331  
344.500000	3.764836  
345.000000	3.961986  
345.500000	4.173901  
346.000000	4.375862  
346.500000	4.455842  
347.000000	4.455472  
347.500000	4.497750  
348.000000	4.441306  
348.500000	4.346059  
349.000000	4.383908  
349.500000	4.363317  
350.000000	4.332066  
350.500000	4.330869  
351.000000	4.245683  
351.500000	4.079834  
352.000000	3.895045  
352.500000	3.716463  
353.000000	3.557442  
353.500000	3.572303  
354.000000	3.535469  
354.500000	3.571399  
355.000000	3.634546  
355.500000	3.743767  
356.000000	3.907544  
356.500000	4.024273  
357.000000	4.081149  
357.500000	4.185404  
358.000000	4.370719  
358.500000	4.439838  
359.000000	4.427379  
359.500000	4.378311  
360.000000	4.343530  
360.500000	4.386898  
361.000000	4.475951  
361.500000	4.515852  
362.000000	4.560586  
362.500000	4.659373  
363.000000	4.729592  
363.500000	4.710873  
364.000000	4.677714  
364.500000	4.605019  
365.000000	4.471493  
365.500000	4.402773  
366.000000	4.324370  
366.500000	4.237210  
367.000000	4.206334  
367.500000	4.208242  
368.000000	4.184517  
368.500000	4.165773  
369.000000	4.133459  
369.500000	4.049146  
370.000000	3.924811  
370.500000	3.842005  
371.000000	3.813035  
371.500000	3.874579  
372.000000	3.968352  
372.500000	4.127468  
373.000000	4.228724  
373.500000	4.268845  
374.000000	4.286781  
374.500000	4.198412  
375.000000	4.027053  
375.500000	3.816843  
376.000000	3.609732  
376.500000	3.480645  
377.000000	3.458935  
377.500000	3.441765  
378.000000	3.465672  
378.500000	3.555450  
379.000000	3.592898  
379.500000	3.599663  
380.000000	3.536125  
380.500000	3.422493  
381.000000	3.328783  
381.500000	3.237806  
382.000000	3.112375  
382.500000	3.013508  
383.000000	2.989118  
383.500000	3.044237  
384.000000	3.131872  
384.500000	3.234866  
385.000000	3.323333  
385.500000	3.431445  
386.000000	3.516699  
386.500000	3.534998  
387.000000	3.519302  
387.500000	3.477089  
388.000000	3.485451  
388.500000	3.455579  
389.000000	3.441189  
389.500000	3.400095  
390.000000	3.350983  
390.500000	3.277325  
391.000000	3.226040  
391.500000	3.176785  
392.000000	3.042762  
392.500000	2.957762  
393.000000	2.867000  
393.500000	2.850203  
394.000000	2.874772  
394.500000	2.963907  
395.000000	3.059949  
395.500000	3.186276  
396.000000	3.295237  
396.500000	3.294930  
397.000000	3.220341  
397.500000	3.096695  
398.000000	2.937631  
398.500000	2.745619  
399.000000	2.591050  
399.500000	2.498680  
400.000000	2.506448  
400.500000	2.579194  
401.000000	2.645870  
401.500000	2.699450  
402.000000	2.748590  
402.500000	2.799844  
403.000000	2.808445  
403.500000	2.769063  
404.000000	2.748601  
404.500000	2.781119  
405.000000	2.834606  
405.500000	2.886877  
406.000000	2.909486  
406.500000	2.928363  
407.000000	2.969740  
407.500000	2.962152  
408.000000	2.909737  
408.500000	2.835604  
409.000000	2.752656  
409.500000	2.664672  
410.000000	2.605078  
410.500000	2.516058  
411.000000	2.394910  
411.500000	2.296704  
412.000000	2.248409  
412.500000	2.211517  
413.000000	2.192567  
413.500000	2.182668  
414.000000	2.151008  
414.500000	2.162912  
415.000000	2.159697  
415.500000	2.107373  
416.000000	2.034394  
416.500000	2.007017  
417.000000	1.985034  
417.500000	2.023474  
418.000000	2.068408  
418.500000	2.092744  
419.000000	2.148340  
419.500000	2.209435  
420.000000	2.215030  
420.500000	2.144380  
421.000000	2.070442  
421.500000	1.961168  
422.000000	1.895250  
422.500000	1.861399  
423.000000	1.827593  
423.500000	1.805457  
424.000000	1.806237  
424.500000	1.823742  
425.000000	1.859874  
425.500000	1.892554  
426.000000	1.885998  
426.500000	1.888106  
427.000000	1.889832  
427.500000	1.872476  
428.000000	1.829446  
428.500000	1.783395  
429.000000	1.738047  
429.500000	1.720721  
430.000000	1.722684  
430.500000	1.717825  
431.000000	1.723193  
431.500000	1.746949  
432.000000	1.769994  
432.500000	1.771937  
433.000000	1.762321  
433.500000	1.726135  
434.000000	1.692688  
434.500000	1.665846  
435.000000	1.642756  
435.500000	1.626163  
436.000000	1.610496  
436.500000	1.599589  
437.000000	1.585042  
437.500000	1.567038  
438.000000	1.538365  
438.500000	1.513697  
439.000000	1.493658  
439.500000	1.487531  
440.000000	1.493928  
440.500000	1.496292  
441.000000	1.498585  
441.500000	1.502127  
442.000000	1.503416  
442.500000	1.503579  
443.000000	1.494280  
443.500000	1.482083  
444.000000	1.479180  
444.500000	1.482713  

