PE FL                   SPECTRUM    ASCII       PEDS        1.60        
  -1
PP9081~1
23/10/10
15:40:26.00
23/10/10
15:40:26.00


444.500000
1









LS55
20.00
5.00
5.00
SCAN
1
20
100
100
0
500
0
2
0
1
7
ON
500 450 
1 0 0
#HDR
-1
-1
#GR
NM

0.00002384185791015625
0.0
250.000000
0.500000
390
8
2.938607
-4.483647
#DATA
250.000000	-2.937000 
250.500000	-2.620312 
251.000000	-2.327812 
251.500000	-2.125430 
252.000000	-1.909362 
252.500000	-1.999006 
253.000000	-1.686804 
253.500000	-1.271020 
254.000000	-0.536599 
254.500000	0.175117  
255.000000	0.854528  
255.500000	1.042994  
256.000000	1.167863  
256.500000	1.207078  
257.000000	0.619373  
257.500000	0.050757  
258.000000	-0.790220 
258.500000	-1.599275 
259.000000	-1.928264 
259.500000	-1.850624 
260.000000	-2.228877 
260.500000	-2.073458 
261.000000	-1.218791 
261.500000	-0.542157 
262.000000	0.252563  
262.500000	0.942757  
263.000000	1.063185  
263.500000	1.230865  
264.000000	1.179645  
264.500000	0.099225  
265.000000	-1.078805 
265.500000	-2.144015 
266.000000	-3.229068 
266.500000	-3.705546 
267.000000	-3.442234 
267.500000	-3.209708 
268.000000	-2.445407 
268.500000	-1.413846 
269.000000	-0.666441 
269.500000	-0.178059 
270.000000	-0.052143 
270.500000	-0.886096 
271.000000	-1.688939 
271.500000	-2.387533 
272.000000	-3.334193 
272.500000	-3.975145 
273.000000	-4.439909 
273.500000	-4.483647 
274.000000	-4.156056 
274.500000	-3.672459 
275.000000	-3.564368 
275.500000	-3.252971 
276.000000	-2.695125 
276.500000	-2.264518 
277.000000	-1.632387 
277.500000	-1.227612 
278.000000	-1.005426 
278.500000	-0.754730 
279.000000	-0.635797 
279.500000	-0.736307 
280.000000	-0.918614 
280.500000	-0.961819 
281.000000	-1.011136 
281.500000	-0.733923 
282.000000	-0.586419 
282.500000	-0.509113 
283.000000	-0.411890 
283.500000	-0.532784 
284.000000	-0.795561 
284.500000	-1.113659 
285.000000	-1.403983 
285.500000	-1.640540 
286.000000	-1.692595 
286.500000	-1.913668 
287.000000	-1.930550 
287.500000	-1.810747 
288.000000	-1.790197 
288.500000	-2.043323 
289.000000	-2.417087 
289.500000	-2.565382 
290.000000	-2.475937 
290.500000	-2.267701 
291.000000	-2.376594 
291.500000	-2.354116 
292.000000	-2.252923 
292.500000	-2.015208 
293.000000	-2.080453 
293.500000	-2.311787 
294.000000	-2.436328 
294.500000	-2.270557 
295.000000	-1.896814 
295.500000	-1.735909 
296.000000	-1.696969 
296.500000	-1.745864 
297.000000	-1.834248 
297.500000	-2.247358 
298.000000	-2.878776 
298.500000	-3.455952 
299.000000	-3.732936 
299.500000	-3.500186 
300.000000	-2.929720 
300.500000	-2.352225 
301.000000	-1.587087 
301.500000	-0.812784 
302.000000	-0.292797 
302.500000	-0.014887 
303.000000	-0.101106 
303.500000	-0.408863 
304.000000	-0.699749 
304.500000	-0.845244 
305.000000	-1.343744 
305.500000	-1.694935 
306.000000	-1.988653 
306.500000	-2.076400 
307.000000	-2.042222 
307.500000	-1.980498 
308.000000	-1.635941 
308.500000	-1.158180 
309.000000	-0.335804 
309.500000	0.178717  
310.000000	0.621264  
310.500000	0.806295  
311.000000	1.031674  
311.500000	1.175984  
312.000000	1.023239  
312.500000	1.151146  
313.000000	1.315161  
313.500000	1.751434  
314.000000	2.034782  
314.500000	2.354474  
315.000000	2.485185  
315.500000	2.673364  
316.000000	2.823149  
316.500000	2.594391  
317.000000	2.518964  
317.500000	2.558117  
318.000000	2.697051  
318.500000	2.665966  
319.000000	2.720710  
319.500000	2.820234  
320.000000	2.901558  
320.500000	2.938607  
321.000000	2.690794  
321.500000	2.418498  
322.000000	2.220444  
322.500000	2.019042  
323.000000	1.641328  
323.500000	1.243604  
324.000000	1.089988  
324.500000	0.925764  
325.000000	0.781540  
325.500000	0.631334  
326.000000	0.551543  
326.500000	0.769777  
327.000000	1.060108  
327.500000	1.300260  
328.000000	1.514730  
328.500000	1.958859  
329.000000	2.300312  
329.500000	2.379866  
330.000000	2.288461  
330.500000	1.995143  
331.000000	1.726706  
331.500000	1.401202  
332.000000	1.018605  
332.500000	0.758590  
333.000000	0.838321  
333.500000	1.086630  
334.000000	1.300349  
334.500000	1.538655  
335.000000	1.692230  
335.500000	1.889163  
336.000000	1.942472  
336.500000	1.768409  
337.000000	1.426708  
337.500000	1.188473  
338.000000	1.086276  
338.500000	0.970297  
339.000000	0.971220  
339.500000	1.092350  
340.000000	1.378481  
340.500000	1.693133  
341.000000	2.046910  
341.500000	2.250080  
342.000000	2.513260  
342.500000	2.761554  
343.000000	2.896527  
343.500000	2.917427  
344.000000	2.739468  
344.500000	2.573749  
345.000000	2.390905  
345.500000	2.269760  
346.000000	2.099359  
346.500000	1.997736  
347.000000	2.083127  
347.500000	2.254543  
348.000000	2.397429  
348.500000	2.298192  
349.000000	2.069060  
349.500000	1.815833  
350.000000	1.581395  
350.500000	1.375690  
351.000000	1.193123  
351.500000	1.136785  
352.000000	1.297732  
352.500000	1.480179  
353.000000	1.630052  
353.500000	1.685820  
354.000000	1.664345  
354.500000	1.635995  
355.000000	1.640840  
355.500000	1.595075  
356.000000	1.551594  
356.500000	1.583753  
357.000000	1.418945  
357.500000	1.316840  
358.000000	1.186426  
358.500000	0.976983  
359.000000	0.860788  
359.500000	0.896674  
360.000000	0.959660  
360.500000	1.051481  
361.000000	1.292511  
361.500000	1.308334  
362.000000	1.409053  
362.500000	1.520896  
363.000000	1.587399  
363.500000	1.708951  
364.000000	1.975073  
364.500000	2.257141  
365.000000	2.472940  
365.500000	2.706123  
366.000000	2.685162  
366.500000	2.600037  
367.000000	2.450642  
367.500000	2.325006  
368.000000	2.181704  
368.500000	2.165669  
369.000000	2.291089  
369.500000	2.400091  
370.000000	2.486045  
370.500000	2.453545  
371.000000	2.315187  
371.500000	2.122235  
372.000000	2.011506  
372.500000	1.916986  
373.000000	1.895539  
373.500000	2.022090  
374.000000	2.203282  
374.500000	2.411531  
375.000000	2.536798  
375.500000	2.507084  
376.000000	2.321859  
376.500000	2.167579  
377.000000	1.950616  
377.500000	1.770360  
378.000000	1.625916  
378.500000	1.574051  
379.000000	1.678978  
379.500000	1.796721  
380.000000	1.902508  
380.500000	1.951286  
381.000000	2.047339  
381.500000	2.060350  
382.000000	2.059193  
382.500000	2.013700  
383.000000	1.981515  
383.500000	2.033291  
384.000000	2.067312  
384.500000	2.117201  
385.000000	2.122786  
385.500000	2.187166  
386.000000	2.191755  
386.500000	2.143848  
387.000000	2.064618  
387.500000	2.015633  
388.000000	2.010710  
388.500000	2.009559  
389.000000	2.046175  
389.500000	2.095584  
390.000000	2.124009  
390.500000	2.126207  
391.000000	2.096105  
391.500000	2.081275  
392.000000	2.101630  
392.500000	2.130951  
393.000000	2.167391  
393.500000	2.249371  
394.000000	2.350842  
394.500000	2.356810  
395.000000	2.315641  
395.500000	2.273671  
396.000000	2.250183  
396.500000	2.232569  
397.000000	2.169098  
397.500000	2.101031  
398.000000	2.079866  
398.500000	2.148705  
399.000000	2.142096  
399.500000	2.101374  
400.000000	2.062439  
400.500000	2.051686  
401.000000	2.084501  
401.500000	2.065010  
402.000000	2.000162  
402.500000	1.953879  
403.000000	1.962485  
403.500000	1.908369  
404.000000	1.866420  
404.500000	1.897630  
405.000000	1.953139  
405.500000	2.047433  
406.000000	2.102895  
406.500000	2.073202  
407.000000	2.027863  
407.500000	1.985336  
408.000000	1.909632  
408.500000	1.836570  
409.000000	1.833799  
409.500000	1.870527  
410.000000	1.935000  
410.500000	2.024692  
411.000000	2.072999  
411.500000	2.102489  
412.000000	2.139307  
412.500000	2.135350  
413.000000	2.091310  
413.500000	2.032160  
414.000000	1.945831  
414.500000	1.853100  
415.000000	1.744518  
415.500000	1.640340  
416.000000	1.543452  
416.500000	1.489182  
417.000000	1.459506  
417.500000	1.500194  
418.000000	1.553657  
418.500000	1.590035  
419.000000	1.628184  
419.500000	1.620401  
420.000000	1.587865  
420.500000	1.546805  
421.000000	1.506941  
421.500000	1.454143  
422.000000	1.436509  
422.500000	1.440342  
423.000000	1.444678  
423.500000	1.465123  
424.000000	1.471839  
424.500000	1.479465  
425.000000	1.519257  
425.500000	1.544672  
426.000000	1.566221  
426.500000	1.582023  
427.000000	1.602537  
427.500000	1.626602  
428.000000	1.633873  
428.500000	1.603089  
429.000000	1.536967  
429.500000	1.462348  
430.000000	1.392447  
430.500000	1.357897  
431.000000	1.320897  
431.500000	1.307517  
432.000000	1.341267  
432.500000	1.402735  
433.000000	1.459634  
433.500000	1.473212  
434.000000	1.463882  
434.500000	1.446140  
435.000000	1.437122  
435.500000	1.411524  
436.000000	1.381847  
436.500000	1.372409  
437.000000	1.397835  
437.500000	1.420700  
438.000000	1.412537  
438.500000	1.377197  
439.000000	1.330649  
439.500000	1.306370  
440.000000	1.277782  
440.500000	1.249607  
441.000000	1.243052  
441.500000	1.286706  
442.000000	1.323128  
442.500000	1.365352  
443.000000	1.395447  
443.500000	1.401233  
444.000000	1.411639  
444.500000	1.397053  

