PE FL                   SPECTRUM    ASCII       PEDS        1.60        
  -1
PP90B1~1
23/10/10
15:42:27.00
23/10/10
15:42:27.00


444.500000
1









LS55
35.00
5.00
5.00
SCAN
1
20
100
100
0
500
0
2
0
1
7
ON
500 450 
1 0 0
#HDR
-1
-1
#GR
NM

0.00002384185791015625
0.0
250.000000
0.500000
390
8
7.549633
-4.646147
#DATA
250.000000	-1.376000 
250.500000	-2.443521 
251.000000	-3.233941 
251.500000	-3.766584 
252.000000	-4.195786 
252.500000	-4.557563 
253.000000	-4.646147 
253.500000	-4.527052 
254.000000	-4.248625 
254.500000	-3.913538 
255.000000	-3.867630 
255.500000	-3.628536 
256.000000	-3.254208 
256.500000	-2.908500 
257.000000	-3.074043 
257.500000	-3.095822 
258.000000	-3.140467 
258.500000	-3.032787 
259.000000	-2.676210 
259.500000	-2.540164 
260.000000	-2.066558 
260.500000	-1.354013 
261.000000	-0.466124 
261.500000	-0.248457 
262.000000	-0.193939 
262.500000	-0.726471 
263.000000	-1.484576 
263.500000	-2.114529 
264.000000	-3.017550 
264.500000	-3.376677 
265.000000	-2.964336 
265.500000	-1.856545 
266.000000	-0.635656 
266.500000	0.682852  
267.000000	1.511136  
267.500000	1.569533  
268.000000	1.313068  
268.500000	0.351747  
269.000000	-0.858966 
269.500000	-1.692154 
270.000000	-2.165900 
270.500000	-2.185289 
271.000000	-1.786579 
271.500000	-1.255966 
272.000000	-1.075115 
272.500000	-1.022363 
273.000000	-1.311550 
273.500000	-1.944549 
274.000000	-2.383992 
274.500000	-2.569134 
275.000000	-2.614385 
275.500000	-2.548541 
276.000000	-2.243998 
276.500000	-1.824175 
277.000000	-1.552448 
277.500000	-1.300543 
278.000000	-1.213151 
278.500000	-1.235143 
279.000000	-1.072155 
279.500000	-1.037039 
280.000000	-1.300810 
280.500000	-1.773455 
281.000000	-2.053595 
281.500000	-2.555310 
282.000000	-2.862219 
282.500000	-2.925854 
283.000000	-3.041730 
283.500000	-2.810756 
284.000000	-2.508145 
284.500000	-2.437716 
285.000000	-2.392302 
285.500000	-2.150501 
286.000000	-2.182904 
286.500000	-2.125224 
287.000000	-1.941911 
287.500000	-1.990921 
288.000000	-2.056084 
288.500000	-2.155003 
289.000000	-2.604045 
289.500000	-3.235694 
290.000000	-3.766540 
290.500000	-4.188337 
291.000000	-4.317447 
291.500000	-4.230774 
292.000000	-4.063299 
292.500000	-3.622965 
293.000000	-3.030598 
293.500000	-2.611333 
294.000000	-2.533902 
294.500000	-2.651304 
295.000000	-2.543059 
295.500000	-2.263942 
296.000000	-1.968728 
296.500000	-1.684098 
297.000000	-1.221163 
297.500000	-0.684001 
298.000000	0.151983  
298.500000	0.808535  
299.000000	1.260246  
299.500000	1.914970  
300.000000	2.551188  
300.500000	2.787938  
301.000000	2.760177  
301.500000	2.637431  
302.000000	2.248427  
302.500000	2.235987  
303.000000	2.338791  
303.500000	2.597922  
304.000000	3.358506  
304.500000	4.239833  
305.000000	5.075532  
305.500000	5.725398  
306.000000	6.208589  
306.500000	6.085545  
307.000000	5.854812  
307.500000	5.728938  
308.000000	5.687987  
308.500000	6.010804  
309.000000	6.351114  
309.500000	6.818351  
310.000000	7.202135  
310.500000	7.549633  
311.000000	7.515379  
311.500000	6.953718  
312.000000	6.379631  
312.500000	5.771205  
313.000000	5.422489  
313.500000	4.955463  
314.000000	4.818097  
314.500000	4.953694  
315.000000	5.350337  
315.500000	5.893140  
316.000000	6.133460  
316.500000	6.321861  
317.000000	6.446306  
317.500000	6.667043  
318.000000	6.741736  
318.500000	6.792376  
319.000000	6.912148  
319.500000	6.990848  
320.000000	7.146694  
320.500000	7.107435  
321.000000	6.940765  
321.500000	6.561359  
322.000000	6.274646  
322.500000	5.904946  
323.000000	5.645174  
323.500000	5.412393  
324.000000	5.165476  
324.500000	5.005674  
325.000000	4.880642  
325.500000	4.785640  
326.000000	4.432199  
326.500000	4.131020  
327.000000	3.844356  
327.500000	3.837429  
328.000000	3.827070  
328.500000	3.896155  
329.000000	3.942203  
329.500000	3.977297  
330.000000	4.150905  
330.500000	4.073630  
331.000000	3.959675  
331.500000	3.736517  
332.000000	3.667664  
332.500000	3.554129  
333.000000	3.624495  
333.500000	3.692493  
334.000000	3.779128  
334.500000	3.856221  
335.000000	3.754844  
335.500000	3.587036  
336.000000	3.347025  
336.500000	3.116193  
337.000000	2.951420  
337.500000	2.971350  
338.000000	3.050320  
338.500000	3.173628  
339.000000	3.252810  
339.500000	3.203220  
340.000000	3.078482  
340.500000	2.956439  
341.000000	2.722913  
341.500000	2.541643  
342.000000	2.562519  
342.500000	2.657055  
343.000000	2.854139  
343.500000	3.159036  
344.000000	3.479883  
344.500000	3.809192  
345.000000	4.229691  
345.500000	4.426560  
346.000000	4.434905  
346.500000	4.385993  
347.000000	4.065774  
347.500000	3.604246  
348.000000	3.183752  
348.500000	2.799241  
349.000000	2.527954  
349.500000	2.467400  
350.000000	2.545909  
350.500000	2.696778  
351.000000	2.883901  
351.500000	2.889592  
352.000000	2.747247  
352.500000	2.597066  
353.000000	2.454884  
353.500000	2.373664  
354.000000	2.380387  
354.500000	2.511946  
355.000000	2.795626  
355.500000	3.176866  
356.000000	3.450455  
356.500000	3.546136  
357.000000	3.476045  
357.500000	3.286301  
358.000000	2.991099  
358.500000	2.659713  
359.000000	2.387458  
359.500000	2.200205  
360.000000	2.173097  
360.500000	2.275522  
361.000000	2.474768  
361.500000	2.720932  
362.000000	3.081044  
362.500000	3.305603  
363.000000	3.477179  
363.500000	3.613581  
364.000000	3.539672  
364.500000	3.426328  
365.000000	3.207096  
365.500000	2.953683  
366.000000	2.686177  
366.500000	2.538870  
367.000000	2.375073  
367.500000	2.308734  
368.000000	2.400251  
368.500000	2.540028  
369.000000	2.712184  
369.500000	2.841090  
370.000000	2.934348  
370.500000	3.026577  
371.000000	3.149942  
371.500000	3.182550  
372.000000	3.237415  
372.500000	3.245923  
373.000000	3.220174  
373.500000	3.185136  
374.000000	3.103604  
374.500000	2.931456  
375.000000	2.733118  
375.500000	2.546998  
376.000000	2.378091  
376.500000	2.374744  
377.000000	2.381447  
377.500000	2.437382  
378.000000	2.578471  
378.500000	2.788143  
379.000000	2.984281  
379.500000	3.130453  
380.000000	3.230786  
380.500000	3.269739  
381.000000	3.393625  
381.500000	3.465971  
382.000000	3.508040  
382.500000	3.514214  
383.000000	3.520113  
383.500000	3.495066  
384.000000	3.393693  
384.500000	3.238373  
385.000000	3.041224  
385.500000	2.858046  
386.000000	2.624369  
386.500000	2.480009  
387.000000	2.430201  
387.500000	2.425169  
388.000000	2.452071  
388.500000	2.492701  
389.000000	2.596445  
389.500000	2.689691  
390.000000	2.749572  
390.500000	2.710777  
391.000000	2.640956  
391.500000	2.641371  
392.000000	2.643515  
392.500000	2.657593  
393.000000	2.696047  
393.500000	2.791950  
394.000000	2.899433  
394.500000	3.013713  
395.000000	3.109811  
395.500000	3.154895  
396.000000	3.228675  
396.500000	3.250367  
397.000000	3.172823  
397.500000	3.041357  
398.000000	2.872798  
398.500000	2.649766  
399.000000	2.431188  
399.500000	2.251369  
400.000000	2.124662  
400.500000	2.093530  
401.000000	2.145800  
401.500000	2.203206  
402.000000	2.320294  
402.500000	2.433651  
403.000000	2.491096  
403.500000	2.495178  
404.000000	2.433622  
404.500000	2.326419  
405.000000	2.231267  
405.500000	2.153782  
406.000000	2.053693  
406.500000	1.973804  
407.000000	1.901735  
407.500000	1.859097  
408.000000	1.861644  
408.500000	1.864951  
409.000000	1.845945  
409.500000	1.876134  
410.000000	1.890451  
410.500000	1.895945  
411.000000	1.924563  
411.500000	1.949136  
412.000000	2.000631  
412.500000	2.108014  
413.000000	2.202675  
413.500000	2.256929  
414.000000	2.328740  
414.500000	2.353290  
415.000000	2.327816  
415.500000	2.272901  
416.000000	2.177311  
416.500000	2.072309  
417.000000	1.996760  
417.500000	1.953810  
418.000000	1.903383  
418.500000	1.893968  
419.000000	1.901895  
419.500000	1.893124  
420.000000	1.891743  
420.500000	1.880397  
421.000000	1.853440  
421.500000	1.818153  
422.000000	1.813401  
422.500000	1.795930  
423.000000	1.761052  
423.500000	1.736025  
424.000000	1.683782  
424.500000	1.649313  
425.000000	1.599073  
425.500000	1.541042  
426.000000	1.467874  
426.500000	1.427914  
427.000000	1.417159  
427.500000	1.418873  
428.000000	1.427616  
428.500000	1.431732  
429.000000	1.474558  
429.500000	1.519720  
430.000000	1.566333  
430.500000	1.612957  
431.000000	1.653186  
431.500000	1.689206  
432.000000	1.720199  
432.500000	1.716893  
433.000000	1.680640  
433.500000	1.642914  
434.000000	1.585336  
434.500000	1.524866  
435.000000	1.491913  
435.500000	1.471674  
436.000000	1.463797  
436.500000	1.484467  
437.000000	1.521137  
437.500000	1.557906  
438.000000	1.585718  
438.500000	1.591662  
439.000000	1.589248  
439.500000	1.591525  
440.000000	1.595616  
440.500000	1.579029  
441.000000	1.548103  
441.500000	1.517917  
442.000000	1.489053  
442.500000	1.462396  
443.000000	1.423466  
443.500000	1.388313  
444.000000	1.364351  
444.500000	1.357319  

