PE FL                   SPECTRUM    ASCII       PEDS        1.60        
  -1
PMDF8B~1
23/10/12
12:13:40.00
23/10/12
12:13:40.00


444.500000
1









LS55
40.00
5.00
5.00
SCAN
1
20
100
500
0
500
0
2
0
1
7
ON
500 450 
1 0 0
#HDR
-1
-1
#GR
NM

0.00002384185791015625
0.0
250.000000
0.500000
390
8
20.117772
-5.000000
#DATA
250.000000	-5.000000 
250.500000	-4.653451 
251.000000	-4.378551 
251.500000	-4.056194 
252.000000	-3.634741 
252.500000	-3.201365 
253.000000	-2.903340 
253.500000	-2.524276 
254.000000	-2.248118 
254.500000	-1.977143 
255.000000	-1.964677 
255.500000	-2.183002 
256.000000	-2.627706 
256.500000	-3.102229 
257.000000	-3.492278 
257.500000	-4.142320 
258.000000	-4.501212 
258.500000	-4.649857 
259.000000	-4.498062 
259.500000	-4.382310 
260.000000	-4.225241 
260.500000	-3.918597 
261.000000	-3.551829 
261.500000	-3.050205 
262.000000	-2.819002 
262.500000	-2.925769 
263.000000	-2.699074 
263.500000	-2.297035 
264.000000	-1.976239 
264.500000	-1.934493 
265.000000	-1.668085 
265.500000	-1.352054 
266.000000	-0.999369 
266.500000	-0.835257 
267.000000	-1.315844 
267.500000	-1.693455 
268.000000	-1.969841 
268.500000	-2.232435 
269.000000	-2.866023 
269.500000	-3.480228 
270.000000	-3.807526 
270.500000	-4.024576 
271.000000	-3.871329 
271.500000	-4.052650 
272.000000	-3.991334 
272.500000	-3.662772 
273.000000	-3.037374 
273.500000	-2.541982 
274.000000	-2.195801 
274.500000	-1.957446 
275.000000	-1.814258 
275.500000	-1.752181 
276.000000	-2.054155 
276.500000	-2.292860 
277.000000	-2.317092 
277.500000	-2.133545 
278.000000	-1.879124 
278.500000	-1.799392 
279.000000	-2.056121 
279.500000	-2.285915 
280.000000	-2.309054 
280.500000	-2.797134 
281.000000	-3.034842 
281.500000	-2.789331 
282.000000	-2.133465 
282.500000	-1.012666 
283.000000	0.251357  
283.500000	1.009279  
284.000000	1.426396  
284.500000	1.708133  
285.000000	1.060547  
285.500000	0.102582  
286.000000	-0.939444 
286.500000	-1.790025 
287.000000	-2.105236 
287.500000	-1.987286 
288.000000	-1.705751 
288.500000	-1.670886 
289.000000	-1.304745 
289.500000	-1.344558 
290.000000	-1.601639 
290.500000	-2.153123 
291.000000	-2.701810 
291.500000	-3.075499 
292.000000	-2.957388 
292.500000	-2.398245 
293.000000	-1.818622 
293.500000	-0.968248 
294.000000	-0.117852 
294.500000	0.933079  
295.000000	1.733039  
295.500000	2.496853  
296.000000	2.897049  
296.500000	3.402101  
297.000000	3.741370  
297.500000	3.871276  
298.000000	3.963389  
298.500000	4.092128  
299.000000	4.499029  
299.500000	5.073051  
300.000000	5.957119  
300.500000	6.914871  
301.000000	8.062930  
301.500000	8.716569  
302.000000	9.212779  
302.500000	9.412083  
303.000000	9.644852  
303.500000	9.785378  
304.000000	9.983415  
304.500000	10.611142 
305.000000	11.673619 
305.500000	13.117485 
306.000000	14.310558 
306.500000	15.379642 
307.000000	16.081455 
307.500000	16.858560 
308.000000	17.276629 
308.500000	17.422045 
309.000000	17.614465 
309.500000	18.053584 
310.000000	18.624101 
310.500000	19.159324 
311.000000	19.646953 
311.500000	19.824716 
312.000000	20.066298 
312.500000	20.117772 
313.000000	19.955810 
313.500000	19.811107 
314.000000	19.665794 
314.500000	19.473463 
315.000000	19.467783 
315.500000	19.463634 
316.000000	19.345229 
316.500000	19.192223 
317.000000	18.985153 
317.500000	18.846136 
318.000000	18.605652 
318.500000	18.230781 
319.000000	17.751962 
319.500000	17.364516 
320.000000	16.984975 
320.500000	16.658779 
321.000000	16.412590 
321.500000	16.174289 
322.000000	16.175436 
322.500000	16.267528 
323.000000	16.215564 
323.500000	16.096847 
324.000000	15.849041 
324.500000	15.507935 
325.000000	15.097561 
325.500000	14.593554 
326.000000	13.882860 
326.500000	13.306179 
327.000000	12.798610 
327.500000	12.356250 
328.000000	12.015989 
328.500000	11.770839 
329.000000	11.599015 
329.500000	11.651448 
330.000000	11.617874 
330.500000	11.524902 
331.000000	11.425561 
331.500000	11.072461 
332.000000	10.629373 
332.500000	10.216680 
333.000000	9.827800  
333.500000	9.423957  
334.000000	9.227208  
334.500000	9.030714  
335.000000	8.968146  
335.500000	9.089528  
336.000000	8.908882  
336.500000	8.607890  
337.000000	8.277484  
337.500000	7.922083  
338.000000	7.495060  
338.500000	7.143118  
339.000000	6.838406  
339.500000	6.713487  
340.000000	6.844157  
340.500000	6.930948  
341.000000	7.057615  
341.500000	7.300830  
342.000000	7.498225  
342.500000	7.754110  
343.000000	7.806313  
343.500000	7.793403  
344.000000	7.738558  
344.500000	7.609805  
345.000000	7.287346  
345.500000	6.841425  
346.000000	6.385489  
346.500000	5.894665  
347.000000	5.577606  
347.500000	5.334802  
348.000000	5.291579  
348.500000	5.427384  
349.000000	5.709169  
349.500000	6.146329  
350.000000	6.468294  
350.500000	6.707071  
351.000000	6.748951  
351.500000	6.754934  
352.000000	6.644093  
352.500000	6.591453  
353.000000	6.464514  
353.500000	6.317683  
354.000000	6.437657  
354.500000	6.503057  
355.000000	6.648278  
355.500000	6.791117  
356.000000	6.894306  
356.500000	6.864382  
357.000000	6.864688  
357.500000	6.783539  
358.000000	6.625762  
358.500000	6.645627  
359.000000	6.663375  
359.500000	6.800722  
360.000000	6.980142  
360.500000	7.162229  
361.000000	7.230324  
361.500000	7.119909  
362.000000	6.887289  
362.500000	6.603941  
363.000000	6.381674  
363.500000	6.209502  
364.000000	6.152064  
364.500000	6.272092  
365.000000	6.476247  
365.500000	6.779867  
366.000000	6.971146  
366.500000	7.026697  
367.000000	7.049262  
367.500000	6.986599  
368.000000	6.891160  
368.500000	6.754075  
369.000000	6.688783  
369.500000	6.603384  
370.000000	6.645030  
370.500000	6.690574  
371.000000	6.684413  
371.500000	6.709090  
372.000000	6.782165  
372.500000	6.905877  
373.000000	6.971532  
373.500000	7.028156  
374.000000	6.957739  
374.500000	6.911187  
375.000000	6.803312  
375.500000	6.636584  
376.000000	6.467253  
376.500000	6.285401  
377.000000	6.157750  
377.500000	6.030888  
378.000000	5.877286  
378.500000	5.720148  
379.000000	5.692685  
379.500000	5.707958  
380.000000	5.771030  
380.500000	5.917853  
381.000000	6.081176  
381.500000	6.196347  
382.000000	6.300906  
382.500000	6.304733  
383.000000	6.217984  
383.500000	6.108056  
384.000000	5.964783  
384.500000	5.823462  
385.000000	5.784599  
385.500000	5.797562  
386.000000	5.751628  
386.500000	5.767630  
387.000000	5.785915  
387.500000	5.801623  
388.000000	5.829974  
388.500000	5.836818  
389.000000	5.852801  
389.500000	5.914828  
390.000000	6.052199  
390.500000	6.143135  
391.000000	6.227185  
391.500000	6.260177  
392.000000	6.218525  
392.500000	6.122000  
393.000000	5.973225  
393.500000	5.781518  
394.000000	5.542774  
394.500000	5.313579  
395.000000	5.180319  
395.500000	5.127823  
396.000000	5.140972  
396.500000	5.159147  
397.000000	5.211276  
397.500000	5.298486  
398.000000	5.394455  
398.500000	5.438731  
399.000000	5.413334  
399.500000	5.420499  
400.000000	5.412572  
400.500000	5.407477  
401.000000	5.370632  
401.500000	5.296981  
402.000000	5.258814  
402.500000	5.250449  
403.000000	5.225672  
403.500000	5.181921  
404.000000	5.181721  
404.500000	5.204263  
405.000000	5.180925  
405.500000	5.108143  
406.000000	4.990425  
406.500000	4.909181  
407.000000	4.910490  
407.500000	4.868600  
408.000000	4.819248  
408.500000	4.827441  
409.000000	4.915036  
409.500000	4.965313  
410.000000	4.956834  
410.500000	4.867133  
411.000000	4.752014  
411.500000	4.705371  
412.000000	4.597017  
412.500000	4.442730  
413.000000	4.277402  
413.500000	4.212465  
414.000000	4.176626  
414.500000	4.135417  
415.000000	4.094949  
415.500000	4.019853  
416.000000	3.978001  
416.500000	3.881920  
417.000000	3.772267  
417.500000	3.604277  
418.000000	3.481575  
418.500000	3.404769  
419.000000	3.367085  
419.500000	3.383363  
420.000000	3.437483  
420.500000	3.545485  
421.000000	3.658781  
421.500000	3.827982  
422.000000	3.947856  
422.500000	4.022975  
423.000000	4.073831  
423.500000	4.085532  
424.000000	4.041321  
424.500000	3.959703  
425.000000	3.846200  
425.500000	3.711737  
426.000000	3.634546  
426.500000	3.587342  
427.000000	3.526878  
427.500000	3.472980  
428.000000	3.425394  
428.500000	3.330491  
429.000000	3.192107  
429.500000	2.993433  
430.000000	2.813498  
430.500000	2.691038  
431.000000	2.636167  
431.500000	2.654690  
432.000000	2.714774  
432.500000	2.815535  
433.000000	2.908220  
433.500000	2.979937  
434.000000	2.988330  
434.500000	2.943240  
435.000000	2.868339  
435.500000	2.783625  
436.000000	2.730592  
436.500000	2.662555  
437.000000	2.631903  
437.500000	2.614490  
438.000000	2.593039  
438.500000	2.592983  
439.000000	2.581206  
439.500000	2.565569  
440.000000	2.563910  
440.500000	2.597372  
441.000000	2.596364  
441.500000	2.599491  
442.000000	2.623427  
442.500000	2.611282  
443.000000	2.629036  
443.500000	2.639596  
444.000000	2.644249  
444.500000	2.669852  

