PE FL                   SPECTRUM    ASCII       PEDS        1.60        
  -1
PMDF9B~1
23/10/12
12:14:20.00
23/10/12
12:14:20.00


444.500000
1









LS55
45.00
5.00
5.00
SCAN
1
20
100
500
0
500
0
2
0
1
7
ON
500 450 
1 0 0
#HDR
-1
-1
#GR
NM

0.00002384185791015625
0.0
250.000000
0.500000
390
8
20.660236
-5.000000
#DATA
250.000000	-5.000000 
250.500000	-2.546828 
251.000000	-0.289871 
251.500000	0.851709  
252.000000	1.185801  
252.500000	0.935927  
253.000000	-0.094149 
253.500000	-1.455255 
254.000000	-2.602242 
254.500000	-3.816288 
255.000000	-4.414049 
255.500000	-4.462544 
256.000000	-4.664704 
256.500000	-4.443381 
257.000000	-3.953231 
257.500000	-3.408258 
258.000000	-2.749433 
258.500000	-2.338103 
259.000000	-2.556566 
259.500000	-2.584322 
260.000000	-2.420114 
260.500000	-2.144590 
261.000000	-1.466634 
261.500000	-0.551542 
262.000000	0.711424  
262.500000	1.983517  
263.000000	2.588501  
263.500000	2.497510  
264.000000	2.160900  
264.500000	1.349242  
265.000000	0.316899  
265.500000	-0.471395 
266.000000	-1.082192 
266.500000	-1.184269 
267.000000	-1.096922 
267.500000	-1.320017 
268.000000	-1.617278 
268.500000	-1.623071 
269.000000	-1.770529 
269.500000	-1.930239 
270.000000	-1.774224 
270.500000	-1.419418 
271.000000	-0.756322 
271.500000	-0.310969 
272.000000	-0.373572 
272.500000	-1.029507 
273.000000	-1.541153 
273.500000	-2.070998 
274.000000	-2.642162 
274.500000	-2.999477 
275.000000	-3.113957 
275.500000	-2.788946 
276.000000	-2.299173 
276.500000	-1.670398 
277.000000	-1.490141 
277.500000	-1.353061 
278.000000	-1.212655 
278.500000	-1.043419 
279.000000	-0.612601 
279.500000	-0.074171 
280.000000	0.508298  
280.500000	0.856525  
281.000000	1.177937  
281.500000	1.351606  
282.000000	1.361698  
282.500000	1.066769  
283.000000	0.448837  
283.500000	-0.057826 
284.000000	-0.631284 
284.500000	-1.142038 
285.000000	-1.698243 
285.500000	-2.311429 
286.000000	-2.620932 
286.500000	-2.899058 
287.000000	-2.863764 
287.500000	-3.061680 
288.000000	-2.952661 
288.500000	-2.808635 
289.000000	-2.390528 
289.500000	-2.238368 
290.000000	-1.889012 
290.500000	-1.232744 
291.000000	-0.880763 
291.500000	-0.399603 
292.000000	-0.081630 
292.500000	0.371075  
293.000000	0.947267  
293.500000	1.810162  
294.000000	2.159782  
294.500000	2.815536  
295.000000	3.881916  
295.500000	4.637909  
296.000000	5.074522  
296.500000	4.981944  
297.000000	4.494771  
297.500000	4.139046  
298.000000	4.149908  
298.500000	3.772325  
299.000000	3.616364  
299.500000	4.357620  
300.000000	5.371503  
300.500000	6.470294  
301.000000	7.373567  
301.500000	7.996248  
302.000000	8.508077  
302.500000	9.058130  
303.000000	9.289351  
303.500000	9.352139  
304.000000	10.030752 
304.500000	10.727009 
305.000000	11.930131 
305.500000	13.063718 
306.000000	14.274971 
306.500000	15.482651 
307.000000	16.787515 
307.500000	17.810727 
308.000000	18.488092 
308.500000	19.335942 
309.000000	19.576131 
309.500000	20.052582 
310.000000	20.412394 
310.500000	20.660236 
311.000000	20.545865 
311.500000	20.373938 
312.000000	20.104833 
312.500000	19.916517 
313.000000	19.889174 
313.500000	19.657072 
314.000000	19.730761 
314.500000	19.975273 
315.000000	20.350744 
315.500000	20.569807 
316.000000	20.523356 
316.500000	20.295895 
317.000000	19.923209 
317.500000	19.518825 
318.000000	18.978881 
318.500000	18.447314 
319.000000	17.991526 
319.500000	17.917456 
320.000000	17.967644 
320.500000	17.979768 
321.000000	17.868522 
321.500000	17.517170 
322.000000	17.059764 
322.500000	16.501211 
323.000000	15.823435 
323.500000	15.028957 
324.000000	14.432651 
324.500000	13.987309 
325.000000	13.754292 
325.500000	13.557381 
326.000000	13.395124 
326.500000	13.393506 
327.000000	13.342700 
327.500000	13.230947 
328.000000	13.046866 
328.500000	12.902102 
329.000000	12.744206 
329.500000	12.556713 
330.000000	12.146876 
330.500000	11.720037 
331.000000	11.392527 
331.500000	11.049507 
332.000000	10.722733 
332.500000	10.537914 
333.000000	10.500968 
333.500000	10.628025 
334.000000	10.628706 
334.500000	10.414096 
335.000000	10.049555 
335.500000	9.726907  
336.000000	9.273924  
336.500000	8.745745  
337.000000	8.231565  
337.500000	7.827135  
338.000000	7.676713  
338.500000	7.565160  
339.000000	7.513686  
339.500000	7.660227  
340.000000	7.853735  
340.500000	8.067532  
341.000000	8.214292  
341.500000	8.273240  
342.000000	8.129259  
342.500000	7.944041  
343.000000	7.519363  
343.500000	6.952373  
344.000000	6.581339  
344.500000	6.292940  
345.000000	6.227352  
345.500000	6.349673  
346.000000	6.631502  
346.500000	6.906566  
347.000000	7.202242  
347.500000	7.336934  
348.000000	7.290668  
348.500000	7.306419  
349.000000	7.263425  
349.500000	7.350358  
350.000000	7.504074  
350.500000	7.737951  
351.000000	7.911037  
351.500000	8.066529  
352.000000	8.105050  
352.500000	8.098401  
353.000000	8.030268  
353.500000	7.843078  
354.000000	7.741035  
354.500000	7.695097  
355.000000	7.722785  
355.500000	7.774227  
356.000000	7.874055  
356.500000	7.917956  
357.000000	7.952033  
357.500000	7.980376  
358.000000	7.933146  
358.500000	7.921706  
359.000000	7.901065  
359.500000	7.895972  
360.000000	7.904503  
360.500000	7.901772  
361.000000	7.817818  
361.500000	7.654836  
362.000000	7.444255  
362.500000	7.235259  
363.000000	7.114784  
363.500000	7.037580  
364.000000	6.920997  
364.500000	6.909718  
365.000000	7.027162  
365.500000	7.165644  
366.000000	7.263444  
366.500000	7.292565  
367.000000	7.312948  
367.500000	7.359674  
368.000000	7.475402  
368.500000	7.506561  
369.000000	7.576764  
369.500000	7.755599  
370.000000	7.881161  
370.500000	7.914682  
371.000000	7.912472  
371.500000	7.861139  
372.000000	7.785437  
372.500000	7.816234  
373.000000	7.811058  
373.500000	7.740333  
374.000000	7.735519  
374.500000	7.699441  
375.000000	7.611320  
375.500000	7.590196  
376.000000	7.541851  
376.500000	7.469220  
377.000000	7.432840  
377.500000	7.419675  
378.000000	7.362794  
378.500000	7.331091  
379.000000	7.251607  
379.500000	7.102287  
380.000000	7.044228  
380.500000	7.026373  
381.000000	7.037372  
381.500000	7.059762  
382.000000	7.189842  
382.500000	7.356671  
383.000000	7.532125  
383.500000	7.659154  
384.000000	7.642652  
384.500000	7.602733  
385.000000	7.539545  
385.500000	7.457152  
386.000000	7.232358  
386.500000	6.982801  
387.000000	6.786328  
387.500000	6.675180  
388.000000	6.691358  
388.500000	6.760158  
389.000000	6.883291  
389.500000	7.044968  
390.000000	7.225223  
390.500000	7.267151  
391.000000	7.221313  
391.500000	7.181506  
392.000000	7.085661  
392.500000	7.069936  
393.000000	7.115888  
393.500000	7.203902  
394.000000	7.300630  
394.500000	7.422432  
395.000000	7.398671  
395.500000	7.220526  
396.000000	6.973342  
396.500000	6.646143  
397.000000	6.391851  
397.500000	6.208390  
398.000000	6.137702  
398.500000	6.226469  
399.000000	6.448886  
399.500000	6.596617  
400.000000	6.576832  
400.500000	6.395972  
401.000000	6.083125  
401.500000	5.757485  
402.000000	5.382500  
402.500000	4.975956  
403.000000	4.755480  
403.500000	4.777384  
404.000000	4.973192  
404.500000	5.200118  
405.000000	5.431182  
405.500000	5.650482  
406.000000	5.857054  
406.500000	5.965024  
407.000000	5.898615  
407.500000	5.744567  
408.000000	5.557854  
408.500000	5.390503  
409.000000	5.227503  
409.500000	5.089123  
410.000000	4.982800  
410.500000	4.932564  
411.000000	4.923780  
411.500000	4.933985  
412.000000	4.957709  
412.500000	4.972827  
413.000000	4.948769  
413.500000	4.885197  
414.000000	4.836149  
414.500000	4.823933  
415.000000	4.782019  
415.500000	4.689041  
416.000000	4.588850  
416.500000	4.522283  
417.000000	4.428979  
417.500000	4.319745  
418.000000	4.196364  
418.500000	4.153989  
419.000000	4.214763  
419.500000	4.290175  
420.000000	4.379157  
420.500000	4.460126  
421.000000	4.561554  
421.500000	4.619265  
422.000000	4.639141  
422.500000	4.592840  
423.000000	4.539640  
423.500000	4.488971  
424.000000	4.356545  
424.500000	4.193252  
425.000000	4.043079  
425.500000	3.923680  
426.000000	3.770037  
426.500000	3.631943  
427.000000	3.515771  
427.500000	3.486634  
428.000000	3.522159  
428.500000	3.520985  
429.000000	3.496395  
429.500000	3.514702  
430.000000	3.545219  
430.500000	3.534133  
431.000000	3.511789  
431.500000	3.488563  
432.000000	3.482882  
432.500000	3.469934  
433.000000	3.397056  
433.500000	3.259858  
434.000000	3.105850  
434.500000	2.974985  
435.000000	2.888778  
435.500000	2.893777  
436.000000	2.967842  
436.500000	3.135044  
437.000000	3.355701  
437.500000	3.577635  
438.000000	3.724948  
438.500000	3.781029  
439.000000	3.740820  
439.500000	3.652972  
440.000000	3.523474  
440.500000	3.350834  
441.000000	3.186190  
441.500000	3.044032  
442.000000	2.942453  
442.500000	2.865688  
443.000000	2.775535  
443.500000	2.684956  
444.000000	2.635624  
444.500000	2.634747  

