PE FL                   SPECTRUM    ASCII       PEDS        1.60        
  -1
PMDF7B~1
23/10/12
12:12:59.00
23/10/12
12:12:59.00


444.500000
1









LS55
35.00
5.00
5.00
SCAN
1
20
100
500
0
500
0
2
0
1
7
ON
500 450 
1 0 0
#HDR
-1
-1
#GR
NM

0.00002384185791015625
0.0
250.000000
0.500000
390
8
19.403823
-4.999999
#DATA
250.000000	-4.999999 
250.500000	-4.686597 
251.000000	-4.352134 
251.500000	-4.483850 
252.000000	-4.628173 
252.500000	-4.351177 
253.000000	-3.667202 
253.500000	-2.790018 
254.000000	-1.605485 
254.500000	-0.380907 
255.000000	0.802202  
255.500000	1.667235  
256.000000	1.640817  
256.500000	0.901555  
257.000000	-0.024632 
257.500000	-0.907450 
258.000000	-1.893338 
258.500000	-2.652861 
259.000000	-3.077939 
259.500000	-3.140091 
260.000000	-3.040350 
260.500000	-3.128605 
261.000000	-3.331120 
261.500000	-3.574285 
262.000000	-3.544791 
262.500000	-3.737146 
263.000000	-3.759494 
263.500000	-3.525639 
264.000000	-3.134465 
264.500000	-2.962803 
265.000000	-3.015015 
265.500000	-3.057541 
266.000000	-3.215530 
266.500000	-2.969999 
267.000000	-2.766803 
267.500000	-2.318303 
268.000000	-1.690660 
268.500000	-0.977811 
269.000000	-0.773136 
269.500000	-0.825924 
270.000000	-0.962125 
270.500000	-1.262528 
271.000000	-1.276912 
271.500000	-1.111544 
272.000000	-0.810701 
272.500000	-0.250693 
273.000000	0.536991  
273.500000	0.774199  
274.000000	0.477208  
274.500000	-0.012556 
275.000000	-0.649229 
275.500000	-1.209064 
276.000000	-1.728978 
276.500000	-2.267012 
277.000000	-2.471055 
277.500000	-2.110697 
278.000000	-1.663254 
278.500000	-1.663708 
279.000000	-1.601414 
279.500000	-1.514896 
280.000000	-1.211939 
280.500000	-0.974135 
281.000000	-1.119142 
281.500000	-1.484192 
282.000000	-1.847200 
282.500000	-2.080444 
283.000000	-2.639719 
283.500000	-3.122005 
284.000000	-3.667137 
284.500000	-3.984024 
285.000000	-4.001300 
285.500000	-3.927737 
286.000000	-3.766993 
286.500000	-3.291485 
287.000000	-2.498144 
287.500000	-1.640010 
288.000000	-0.952044 
288.500000	-0.611340 
289.000000	-0.699197 
289.500000	-0.998727 
290.000000	-1.638343 
290.500000	-2.299699 
291.000000	-2.503606 
291.500000	-2.226290 
292.000000	-1.423915 
292.500000	-0.219894 
293.000000	1.399196  
293.500000	2.842499  
294.000000	4.133249  
294.500000	4.852020  
295.000000	4.986342  
295.500000	4.915227  
296.000000	4.785611  
296.500000	4.548426  
297.000000	4.003939  
297.500000	3.459892  
298.000000	3.029585  
298.500000	2.864153  
299.000000	2.773686  
299.500000	2.982161  
300.000000	3.485654  
300.500000	4.539342  
301.000000	5.895887  
301.500000	7.109802  
302.000000	8.064208  
302.500000	9.085877  
303.000000	10.110681 
303.500000	10.837050 
304.000000	11.502863 
304.500000	11.829731 
305.000000	12.275558 
305.500000	12.950081 
306.000000	13.516877 
306.500000	13.342526 
307.000000	13.192717 
307.500000	13.073400 
308.000000	12.957616 
308.500000	13.110664 
309.000000	13.210281 
309.500000	13.486281 
310.000000	13.899338 
310.500000	14.699516 
311.000000	15.235966 
311.500000	15.786552 
312.000000	16.327466 
312.500000	16.962889 
313.000000	17.817386 
313.500000	18.566092 
314.000000	19.070084 
314.500000	19.124038 
315.000000	19.376599 
315.500000	19.403823 
316.000000	19.210880 
316.500000	18.790420 
317.000000	18.321757 
317.500000	17.999137 
318.000000	17.874985 
318.500000	17.740702 
319.000000	17.420728 
319.500000	17.278139 
320.000000	17.218994 
320.500000	16.986226 
321.000000	16.722417 
321.500000	16.535633 
322.000000	16.326392 
322.500000	16.258758 
323.000000	16.167152 
323.500000	16.090538 
324.000000	16.112750 
324.500000	16.305732 
325.000000	16.314979 
325.500000	16.055084 
326.000000	15.664494 
326.500000	15.030353 
327.000000	14.408361 
327.500000	13.578563 
328.000000	12.739011 
328.500000	12.020999 
329.000000	11.696992 
329.500000	11.603241 
330.000000	11.726613 
330.500000	11.945344 
331.000000	11.997283 
331.500000	12.059102 
332.000000	11.900274 
332.500000	11.401736 
333.000000	10.811691 
333.500000	10.183549 
334.000000	9.564496  
334.500000	9.194114  
335.000000	8.902974  
335.500000	8.497655  
336.000000	8.251393  
336.500000	8.145817  
337.000000	7.990637  
337.500000	7.934232  
338.000000	7.798597  
338.500000	7.662393  
339.000000	7.598137  
339.500000	7.594296  
340.000000	7.448767  
340.500000	7.155099  
341.000000	6.823161  
341.500000	6.430036  
342.000000	6.043158  
342.500000	5.618541  
343.000000	5.383193  
343.500000	5.193706  
344.000000	5.226492  
344.500000	5.286515  
345.000000	5.398743  
345.500000	5.491045  
346.000000	5.604520  
346.500000	5.466610  
347.000000	5.220419  
347.500000	5.023230  
348.000000	4.710613  
348.500000	4.554393  
349.000000	4.463950  
349.500000	4.436000  
350.000000	4.490886  
350.500000	4.712514  
351.000000	4.706733  
351.500000	4.727244  
352.000000	4.821114  
352.500000	4.871383  
353.000000	4.950035  
353.500000	5.077898  
354.000000	5.170142  
354.500000	5.139858  
355.000000	5.255524  
355.500000	5.143906  
356.000000	5.030189  
356.500000	4.997590  
357.000000	5.031403  
357.500000	5.064475  
358.000000	5.215707  
358.500000	5.381686  
359.000000	5.335472  
359.500000	5.323382  
360.000000	5.191071  
360.500000	4.983891  
361.000000	4.737028  
361.500000	4.529851  
362.000000	4.342126  
362.500000	4.306968  
363.000000	4.528433  
363.500000	4.714458  
364.000000	4.957559  
364.500000	5.289286  
365.000000	5.677450  
365.500000	5.998094  
366.000000	6.151182  
366.500000	6.171209  
367.000000	6.114537  
367.500000	6.175438  
368.000000	6.178174  
368.500000	6.121492  
369.000000	6.027213  
369.500000	6.059727  
370.000000	6.040979  
370.500000	5.901011  
371.000000	5.606797  
371.500000	5.193584  
372.000000	4.875146  
372.500000	4.584303  
373.000000	4.420790  
373.500000	4.340017  
374.000000	4.534384  
374.500000	4.791037  
375.000000	5.086358  
375.500000	5.318318  
376.000000	5.460205  
376.500000	5.565540  
377.000000	5.535981  
377.500000	5.500388  
378.000000	5.439041  
378.500000	5.540062  
379.000000	5.634742  
379.500000	5.792561  
380.000000	5.900297  
380.500000	5.983546  
381.000000	6.007430  
381.500000	5.893432  
382.000000	5.689762  
382.500000	5.503360  
383.000000	5.401053  
383.500000	5.327548  
384.000000	5.334910  
384.500000	5.379846  
385.000000	5.429880  
385.500000	5.455047  
386.000000	5.392127  
386.500000	5.298591  
387.000000	5.202595  
387.500000	5.080273  
388.000000	4.959574  
388.500000	4.877546  
389.000000	4.834403  
389.500000	4.813634  
390.000000	4.816057  
390.500000	4.798668  
391.000000	4.819301  
391.500000	4.869161  
392.000000	4.862412  
392.500000	4.823866  
393.000000	4.789363  
393.500000	4.738490  
394.000000	4.678046  
394.500000	4.618893  
395.000000	4.509013  
395.500000	4.438408  
396.000000	4.415434  
396.500000	4.357528  
397.000000	4.316141  
397.500000	4.289916  
398.000000	4.291056  
398.500000	4.339487  
399.000000	4.404385  
399.500000	4.467259  
400.000000	4.523535  
400.500000	4.589743  
401.000000	4.592641  
401.500000	4.560497  
402.000000	4.446007  
402.500000	4.334289  
403.000000	4.243673  
403.500000	4.171139  
404.000000	4.122301  
404.500000	4.131926  
405.000000	4.215867  
405.500000	4.302949  
406.000000	4.392535  
406.500000	4.418383  
407.000000	4.373860  
407.500000	4.296657  
408.000000	4.143036  
408.500000	3.924577  
409.000000	3.693361  
409.500000	3.498137  
410.000000	3.358677  
410.500000	3.278420  
411.000000	3.296324  
411.500000	3.355473  
412.000000	3.473849  
412.500000	3.597533  
413.000000	3.677437  
413.500000	3.732926  
414.000000	3.737913  
414.500000	3.683388  
415.000000	3.580957  
415.500000	3.469062  
416.000000	3.337370  
416.500000	3.246588  
417.000000	3.183819  
417.500000	3.130147  
418.000000	3.104331  
418.500000	3.085286  
419.000000	3.062669  
419.500000	3.019863  
420.000000	2.946226  
420.500000	2.877524  
421.000000	2.849520  
421.500000	2.878743  
422.000000	2.902305  
422.500000	2.983048  
423.000000	3.087428  
423.500000	3.179369  
424.000000	3.242163  
424.500000	3.236503  
425.000000	3.177804  
425.500000	3.098603  
426.000000	3.023426  
426.500000	2.916414  
427.000000	2.853388  
427.500000	2.800798  
428.000000	2.757262  
428.500000	2.708367  
429.000000	2.607667  
429.500000	2.504756  
430.000000	2.423955  
430.500000	2.369673  
431.000000	2.319236  
431.500000	2.319626  
432.000000	2.326587  
432.500000	2.354403  
433.000000	2.401263  
433.500000	2.389350  
434.000000	2.391474  
434.500000	2.401610  
435.000000	2.384095  
435.500000	2.393220  
436.000000	2.432237  
436.500000	2.437625  
437.000000	2.463297  
437.500000	2.488292  
438.000000	2.447326  
438.500000	2.403923  
439.000000	2.352872  
439.500000	2.257119  
440.000000	2.171548  
440.500000	2.117213  
441.000000	2.072046  
441.500000	2.091260  
442.000000	2.145941  
442.500000	2.207599  
443.000000	2.277779  
443.500000	2.359617  
444.000000	2.410720  
444.500000	2.432934  

