PE FL                   SPECTRUM    ASCII       PEDS        1.60        
  -1
PMDF3B~1
23/10/12
12:10:18.00
23/10/12
12:10:18.00


444.500000
1









LS55
15.00
5.00
5.00
SCAN
1
20
100
500
0
500
0
2
0
1
7
ON
500 450 
1 0 0
#HDR
-1
-1
#GR
NM

0.00002384185791015625
0.0
250.000000
0.500000
390
8
8.118748
-5.000000
#DATA
250.000000	-5.000000 
250.500000	-4.425752 
251.000000	-4.025894 
251.500000	-3.538080 
252.000000	-3.078048 
252.500000	-2.646332 
253.000000	-2.429219 
253.500000	-2.315077 
254.000000	-2.429888 
254.500000	-2.369062 
255.000000	-2.849940 
255.500000	-3.526661 
256.000000	-4.135793 
256.500000	-4.365333 
257.000000	-4.518243 
257.500000	-4.376377 
258.000000	-3.751075 
258.500000	-2.855277 
259.000000	-1.604087 
259.500000	-0.933105 
260.000000	-0.356008 
260.500000	0.000603  
261.000000	0.212279  
261.500000	0.002124  
262.000000	-0.367122 
262.500000	-0.845998 
263.000000	-1.277803 
263.500000	-1.590410 
264.000000	-2.157598 
264.500000	-2.775914 
265.000000	-3.305898 
265.500000	-3.416392 
266.000000	-3.182627 
266.500000	-2.283142 
267.000000	-1.049187 
267.500000	0.338081  
268.000000	1.839333  
268.500000	2.988485  
269.000000	3.352216  
269.500000	2.861369  
270.000000	1.798648  
270.500000	0.424203  
271.000000	-0.769415 
271.500000	-1.804488 
272.000000	-2.817581 
272.500000	-3.324320 
273.000000	-3.208521 
273.500000	-3.093347 
274.000000	-3.326366 
274.500000	-3.414620 
275.000000	-3.502515 
275.500000	-3.475738 
276.000000	-3.313012 
276.500000	-3.451271 
277.000000	-3.504525 
277.500000	-3.130245 
278.000000	-2.719079 
278.500000	-2.487977 
279.000000	-2.078514 
279.500000	-1.545796 
280.000000	-0.968753 
280.500000	-0.576978 
281.000000	-0.772554 
281.500000	-1.218934 
282.000000	-1.474628 
282.500000	-1.784551 
283.000000	-2.113346 
283.500000	-2.278022 
284.000000	-2.282431 
284.500000	-2.065639 
285.000000	-2.006911 
285.500000	-2.348609 
286.000000	-2.902576 
286.500000	-3.345673 
287.000000	-3.687563 
287.500000	-3.799080 
288.000000	-3.658575 
288.500000	-3.279472 
289.000000	-2.628535 
289.500000	-2.043468 
290.000000	-1.807280 
290.500000	-1.906522 
291.000000	-2.150303 
291.500000	-2.448234 
292.000000	-2.494451 
292.500000	-2.218336 
293.000000	-1.675649 
293.500000	-0.983676 
294.000000	-0.296147 
294.500000	0.203652  
295.000000	0.409561  
295.500000	0.198849  
296.000000	-0.444054 
296.500000	-1.225727 
297.000000	-2.024625 
297.500000	-2.309453 
298.000000	-2.435252 
298.500000	-2.185565 
299.000000	-1.665863 
299.500000	-0.873512 
300.000000	0.027299  
300.500000	0.632484  
301.000000	0.917415  
301.500000	0.730035  
302.000000	0.533993  
302.500000	0.294252  
303.000000	0.265398  
303.500000	0.499729  
304.000000	0.944421  
304.500000	1.717487  
305.000000	2.647673  
305.500000	3.342341  
306.000000	3.579956  
306.500000	3.496284  
307.000000	2.926154  
307.500000	2.157897  
308.000000	1.538034  
308.500000	0.881519  
309.000000	0.481931  
309.500000	0.390568  
310.000000	0.354413  
310.500000	0.463227  
311.000000	0.588150  
311.500000	0.427520  
312.000000	0.183125  
312.500000	0.168216  
313.000000	0.264546  
313.500000	0.661473  
314.000000	1.328306  
314.500000	2.128623  
315.000000	2.901273  
315.500000	3.769063  
316.000000	4.276018  
316.500000	4.417867  
317.000000	4.316535  
317.500000	4.049317  
318.000000	3.821243  
318.500000	3.687014  
319.000000	3.830891  
319.500000	4.384521  
320.000000	5.272583  
320.500000	6.175546  
321.000000	6.774090  
321.500000	7.163392  
322.000000	7.358293  
322.500000	7.092147  
323.000000	6.631595  
323.500000	6.148292  
324.000000	5.978311  
324.500000	6.183573  
325.000000	6.601195  
325.500000	6.948991  
326.000000	7.329059  
326.500000	7.928514  
327.000000	8.118748  
327.500000	7.922390  
328.000000	7.461088  
328.500000	7.018856  
329.000000	6.788250  
329.500000	6.594534  
330.000000	6.363145  
330.500000	6.204461  
331.000000	6.487164  
331.500000	6.807794  
332.000000	6.954130  
332.500000	7.037359  
333.000000	7.062330  
333.500000	7.241591  
334.000000	7.242210  
334.500000	7.032895  
335.000000	6.681324  
335.500000	6.273607  
336.000000	5.839715  
336.500000	5.300765  
337.000000	4.746990  
337.500000	4.233362  
338.000000	3.907185  
338.500000	3.662310  
339.000000	3.525651  
339.500000	3.512153  
340.000000	3.553138  
340.500000	3.671199  
341.000000	3.773565  
341.500000	3.985106  
342.000000	4.274554  
342.500000	4.449366  
343.000000	4.521139  
343.500000	4.488075  
344.000000	4.427180  
344.500000	4.213065  
345.000000	3.862933  
345.500000	3.352937  
346.000000	2.901230  
346.500000	2.663491  
347.000000	2.537860  
347.500000	2.559488  
348.000000	2.639202  
348.500000	2.872104  
349.000000	3.067775  
349.500000	3.221864  
350.000000	3.202473  
350.500000	3.023213  
351.000000	2.757131  
351.500000	2.479157  
352.000000	2.209804  
352.500000	1.930242  
353.000000	1.820386  
353.500000	1.819949  
354.000000	1.954968  
354.500000	2.229776  
355.000000	2.441179  
355.500000	2.691034  
356.000000	2.925715  
356.500000	3.045366  
357.000000	3.104512  
357.500000	3.046455  
358.000000	2.910165  
358.500000	2.758154  
359.000000	2.720232  
359.500000	2.579556  
360.000000	2.480084  
360.500000	2.413911  
361.000000	2.244477  
361.500000	2.185941  
362.000000	2.083240  
362.500000	2.088587  
363.000000	2.061579  
363.500000	2.259979  
364.000000	2.492094  
364.500000	2.793129  
365.000000	3.153062  
365.500000	3.353753  
366.000000	3.461447  
366.500000	3.401874  
367.000000	3.315105  
367.500000	2.957706  
368.000000	2.638658  
368.500000	2.356470  
369.000000	2.114028  
369.500000	2.134803  
370.000000	2.184863  
370.500000	2.195579  
371.000000	2.241124  
371.500000	2.408652  
372.000000	2.484724  
372.500000	2.549339  
373.000000	2.555054  
373.500000	2.478818  
374.000000	2.469347  
374.500000	2.365094  
375.000000	2.162455  
375.500000	2.016197  
376.000000	1.948498  
376.500000	1.907302  
377.000000	1.882569  
377.500000	1.942581  
378.000000	2.052794  
378.500000	2.240171  
379.000000	2.371727  
379.500000	2.392853  
380.000000	2.411421  
380.500000	2.487560  
381.000000	2.554550  
381.500000	2.570920  
382.000000	2.603620  
382.500000	2.715525  
383.000000	2.805041  
383.500000	2.858712  
384.000000	2.831000  
384.500000	2.716328  
385.000000	2.669055  
385.500000	2.595544  
386.000000	2.527268  
386.500000	2.519755  
387.000000	2.648652  
387.500000	2.770115  
388.000000	2.949026  
388.500000	3.136358  
389.000000	3.234340  
389.500000	3.327475  
390.000000	3.338894  
390.500000	3.265597  
391.000000	3.117239  
391.500000	2.975157  
392.000000	2.816778  
392.500000	2.682579  
393.000000	2.595042  
393.500000	2.503979  
394.000000	2.442424  
394.500000	2.433542  
395.000000	2.438825  
395.500000	2.422431  
396.000000	2.394991  
396.500000	2.362125  
397.000000	2.358431  
397.500000	2.351160  
398.000000	2.328836  
398.500000	2.307567  
399.000000	2.342703  
399.500000	2.444706  
400.000000	2.550173  
400.500000	2.588757  
401.000000	2.588686  
401.500000	2.581872  
402.000000	2.532776  
402.500000	2.481047  
403.000000	2.462355  
403.500000	2.484772  
404.000000	2.600858  
404.500000	2.763170  
405.000000	2.931850  
405.500000	3.072642  
406.000000	3.182845  
406.500000	3.210380  
407.000000	3.103526  
407.500000	2.942534  
408.000000	2.720495  
408.500000	2.539634  
409.000000	2.442825  
409.500000	2.438628  
410.000000	2.529636  
410.500000	2.660578  
411.000000	2.877037  
411.500000	3.030116  
412.000000	3.116554  
412.500000	3.095431  
413.000000	3.004282  
413.500000	2.856019  
414.000000	2.698211  
414.500000	2.549551  
415.000000	2.406718  
415.500000	2.374563  
416.000000	2.401572  
416.500000	2.469337  
417.000000	2.537675  
417.500000	2.600558  
418.000000	2.657043  
418.500000	2.694001  
419.000000	2.706279  
419.500000	2.671437  
420.000000	2.602328  
420.500000	2.528064  
421.000000	2.428859  
421.500000	2.296029  
422.000000	2.153224  
422.500000	2.012624  
423.000000	1.897647  
423.500000	1.815708  
424.000000	1.758964  
424.500000	1.741075  
425.000000	1.772704  
425.500000	1.822510  
426.000000	1.880516  
426.500000	1.949080  
427.000000	2.003997  
427.500000	2.048068  
428.000000	2.074274  
428.500000	2.065286  
429.000000	2.039200  
429.500000	2.000810  
430.000000	1.950261  
430.500000	1.907250  
431.000000	1.868127  
431.500000	1.816247  
432.000000	1.790139  
432.500000	1.769451  
433.000000	1.762247  
433.500000	1.768578  
434.000000	1.765478  
434.500000	1.757716  
435.000000	1.769746  
435.500000	1.776291  
436.000000	1.759397  
436.500000	1.743231  
437.000000	1.703563  
437.500000	1.667561  
438.000000	1.639641  
438.500000	1.611870  
439.000000	1.586388  
439.500000	1.588582  
440.000000	1.607042  
440.500000	1.628011  
441.000000	1.652252  
441.500000	1.666719  
442.000000	1.666253  
442.500000	1.656909  
443.000000	1.647048  
443.500000	1.629858  
444.000000	1.612181  
444.500000	1.609808  

