PE FL                   SPECTRUM    ASCII       PEDS        1.60        
  -1
PM21A8~1
23/10/14
20:58:03.00
23/10/14
20:58:03.00


894.500000
1









LS55
316.00
5.00
5.00
SCAN
1
20
100
500
0
100
0
1
0
1
7
ON
900 316 
1 0 0
#HDR
-1
-1
#GR
NM

0.00002384185791015625
0.0
330.000000
0.500000
1130
8
29.581362
-2.281625
#DATA
330.000000	0.130000  
330.500000	0.254935  
331.000000	0.327742  
331.500000	0.419457  
332.000000	0.542003  
332.500000	0.781074  
333.000000	1.211814  
333.500000	1.838940  
334.000000	2.579318  
334.500000	3.393686  
335.000000	4.201263  
335.500000	4.909700  
336.000000	5.505474  
336.500000	5.942460  
337.000000	6.365551  
337.500000	6.875753  
338.000000	7.505708  
338.500000	8.225772  
339.000000	9.042751  
339.500000	9.884914  
340.000000	10.770287 
340.500000	11.638550 
341.000000	12.345976 
341.500000	12.955988 
342.000000	13.556012 
342.500000	14.160389 
343.000000	14.696484 
343.500000	15.193324 
344.000000	15.680917 
344.500000	16.297644 
345.000000	17.006012 
345.500000	17.661861 
346.000000	18.301919 
346.500000	18.969196 
347.000000	19.639454 
347.500000	20.246623 
348.000000	20.717562 
348.500000	21.074857 
349.000000	21.410691 
349.500000	21.774606 
350.000000	22.123807 
350.500000	22.420017 
351.000000	22.658308 
351.500000	22.886088 
352.000000	23.301451 
352.500000	23.787759 
353.000000	24.345618 
353.500000	24.926077 
354.000000	25.590125 
354.500000	26.342830 
355.000000	27.106118 
355.500000	27.512099 
356.000000	27.606063 
356.500000	27.592549 
357.000000	27.583809 
357.500000	27.584644 
358.000000	27.563835 
358.500000	27.586685 
359.000000	27.850230 
359.500000	28.419525 
360.000000	28.894506 
360.500000	29.263089 
361.000000	29.484263 
361.500000	29.581362 
362.000000	29.435795 
362.500000	29.123643 
363.000000	28.723010 
363.500000	28.326315 
364.000000	28.172731 
364.500000	28.075858 
365.000000	28.109678 
365.500000	28.373785 
366.000000	28.708294 
366.500000	28.762034 
367.000000	28.639011 
367.500000	28.361743 
368.000000	27.979186 
368.500000	27.582741 
369.000000	27.242673 
369.500000	26.893384 
370.000000	26.814300 
370.500000	26.941126 
371.000000	26.926302 
371.500000	26.777650 
372.000000	26.473126 
372.500000	25.954188 
373.000000	25.323784 
373.500000	24.727474 
374.000000	24.087857 
374.500000	23.604979 
375.000000	23.368136 
375.500000	23.281119 
376.000000	23.317497 
376.500000	23.318698 
377.000000	23.168245 
377.500000	22.948631 
378.000000	22.700814 
378.500000	22.431828 
379.000000	22.169060 
379.500000	21.944444 
380.000000	21.831000 
380.500000	21.866819 
381.000000	21.937338 
381.500000	21.955775 
382.000000	22.029755 
382.500000	22.072312 
383.000000	22.052075 
383.500000	21.922400 
384.000000	21.724535 
384.500000	21.471688 
385.000000	21.277410 
385.500000	21.018553 
386.000000	20.750405 
386.500000	20.536479 
387.000000	20.371001 
387.500000	20.234733 
388.000000	20.043662 
388.500000	19.884313 
389.000000	19.656917 
389.500000	19.471046 
390.000000	19.242346 
390.500000	19.089872 
391.000000	18.983192 
391.500000	18.921745 
392.000000	18.862578 
392.500000	18.693912 
393.000000	18.505802 
393.500000	18.180642 
394.000000	17.866318 
394.500000	17.495337 
395.000000	17.151861 
395.500000	16.866192 
396.000000	16.660054 
396.500000	16.474599 
397.000000	16.291231 
397.500000	16.111982 
398.000000	15.852084 
398.500000	15.641415 
399.000000	15.449682 
399.500000	15.330553 
400.000000	15.316015 
400.500000	15.484304 
401.000000	15.693594 
401.500000	15.894574 
402.000000	16.009522 
402.500000	15.993259 
403.000000	15.868803 
403.500000	15.623148 
404.000000	15.242484 
404.500000	14.727307 
405.000000	14.189387 
405.500000	13.676480 
406.000000	13.301802 
406.500000	12.893039 
407.000000	12.466021 
407.500000	12.057408 
408.000000	11.666394 
408.500000	11.254537 
409.000000	10.910413 
409.500000	10.557412 
410.000000	10.339454 
410.500000	10.277440 
411.000000	10.313371 
411.500000	10.414732 
412.000000	10.538164 
412.500000	10.678861 
413.000000	10.751227 
413.500000	10.840694 
414.000000	10.768936 
414.500000	10.674394 
415.000000	10.434738 
415.500000	10.062698 
416.000000	9.645894  
416.500000	9.160863  
417.000000	8.629151  
417.500000	8.101940  
418.000000	7.618530  
418.500000	7.151568  
419.000000	6.960678  
419.500000	6.863152  
420.000000	6.766181  
420.500000	6.796672  
421.000000	6.860757  
421.500000	6.865955  
422.000000	6.894950  
422.500000	6.779662  
423.000000	6.594179  
423.500000	6.421060  
424.000000	6.237905  
424.500000	6.054025  
425.000000	5.904012  
425.500000	5.817965  
426.000000	5.801969  
426.500000	5.903217  
427.000000	5.956698  
427.500000	6.057504  
428.000000	6.161649  
428.500000	6.138027  
429.000000	6.019776  
429.500000	5.805992  
430.000000	5.436698  
430.500000	4.963458  
431.000000	4.489601  
431.500000	3.925702  
432.000000	3.402039  
432.500000	3.069125  
433.000000	2.789285  
433.500000	2.627145  
434.000000	2.565025  
434.500000	2.558751  
435.000000	2.638143  
435.500000	2.754278  
436.000000	2.872365  
436.500000	2.902745  
437.000000	3.010044  
437.500000	3.063506  
438.000000	3.018828  
438.500000	2.841850  
439.000000	2.603202  
439.500000	2.376269  
440.000000	2.158821  
440.500000	1.991241  
441.000000	1.742833  
441.500000	1.676334  
442.000000	1.693461  
442.500000	1.757102  
443.000000	1.746413  
443.500000	1.680420  
444.000000	1.659531  
444.500000	1.661125  
445.000000	1.739276  
445.500000	1.722488  
446.000000	1.803882  
446.500000	1.937148  
447.000000	2.068534  
447.500000	2.088046  
448.000000	1.993613  
448.500000	1.775487  
449.000000	1.537544  
449.500000	1.406686  
450.000000	1.197278  
450.500000	1.029096  
451.000000	0.958895  
451.500000	1.034405  
452.000000	1.114856  
452.500000	1.211306  
453.000000	1.265485  
453.500000	1.295198  
454.000000	1.379014  
454.500000	1.459742  
455.000000	1.520640  
455.500000	1.555940  
456.000000	1.633554  
456.500000	1.636775  
457.000000	1.585375  
457.500000	1.422158  
458.000000	1.197684  
458.500000	0.933685  
459.000000	0.712774  
459.500000	0.569600  
460.000000	0.532851  
460.500000	0.653575  
461.000000	0.858748  
461.500000	1.100621  
462.000000	1.308663  
462.500000	1.443503  
463.000000	1.400558  
463.500000	1.279991  
464.000000	1.069599  
464.500000	0.844333  
465.000000	0.639853  
465.500000	0.556786  
466.000000	0.599099  
466.500000	0.672584  
467.000000	0.753910  
467.500000	0.811046  
468.000000	0.872724  
468.500000	0.863415  
469.000000	0.801867  
469.500000	0.625088  
470.000000	0.424997  
470.500000	0.340861  
471.000000	0.322397  
471.500000	0.285745  
472.000000	0.298082  
472.500000	0.360056  
473.000000	0.451326  
473.500000	0.574795  
474.000000	0.582687  
474.500000	0.482262  
475.000000	0.396899  
475.500000	0.324506  
476.000000	0.179858  
476.500000	0.042756  
477.000000	-0.096068 
477.500000	-0.183517 
478.000000	-0.130236 
478.500000	-0.055683 
479.000000	-0.037867 
479.500000	-0.020208 
480.000000	0.066069  
480.500000	0.141199  
481.000000	0.198554  
481.500000	0.247549  
482.000000	0.277566  
482.500000	0.350699  
483.000000	0.456108  
483.500000	0.575026  
484.000000	0.670603  
484.500000	0.721874  
485.000000	0.719093  
485.500000	0.675501  
486.000000	0.574390  
486.500000	0.386390  
487.000000	0.182152  
487.500000	0.018097  
488.000000	-0.093522 
488.500000	-0.130349 
489.000000	-0.168751 
489.500000	-0.189032 
490.000000	-0.138052 
490.500000	-0.058603 
491.000000	-0.000543 
491.500000	0.073910  
492.000000	0.154224  
492.500000	0.225148  
493.000000	0.357096  
493.500000	0.388270  
494.000000	0.342847  
494.500000	0.309033  
495.000000	0.209961  
495.500000	0.025966  
496.000000	-0.154205 
496.500000	-0.302784 
497.000000	-0.477338 
497.500000	-0.571956 
498.000000	-0.661363 
498.500000	-0.714183 
499.000000	-0.675140 
499.500000	-0.621043 
500.000000	-0.577752 
500.500000	-0.515320 
501.000000	-0.378968 
501.500000	-0.294055 
502.000000	-0.238827 
502.500000	-0.257286 
503.000000	-0.306571 
503.500000	-0.395973 
504.000000	-0.431550 
504.500000	-0.441630 
505.000000	-0.427454 
505.500000	-0.353193 
506.000000	-0.290740 
506.500000	-0.269430 
507.000000	-0.281888 
507.500000	-0.293076 
508.000000	-0.408799 
508.500000	-0.494366 
509.000000	-0.521139 
509.500000	-0.453920 
510.000000	-0.280899 
510.500000	-0.119326 
511.000000	-0.001882 
511.500000	0.084702  
512.000000	0.159704  
512.500000	0.111531  
513.000000	-0.013002 
513.500000	-0.156247 
514.000000	-0.221758 
514.500000	-0.160069 
515.000000	-0.054930 
515.500000	0.016218  
516.000000	0.082392  
516.500000	0.131290  
517.000000	0.145601  
517.500000	0.061224  
518.000000	-0.110173 
518.500000	-0.324639 
519.000000	-0.461122 
519.500000	-0.552098 
520.000000	-0.640376 
520.500000	-0.710703 
521.000000	-0.764900 
521.500000	-0.760680 
522.000000	-0.766062 
522.500000	-0.789285 
523.000000	-0.829266 
523.500000	-0.841284 
524.000000	-0.808197 
524.500000	-0.777723 
525.000000	-0.770587 
525.500000	-0.779288 
526.000000	-0.738131 
526.500000	-0.668083 
527.000000	-0.574704 
527.500000	-0.499125 
528.000000	-0.397174 
528.500000	-0.302760 
529.000000	-0.197265 
529.500000	-0.168992 
530.000000	-0.222296 
530.500000	-0.349301 
531.000000	-0.492359 
531.500000	-0.602089 
532.000000	-0.690319 
532.500000	-0.772746 
533.000000	-0.852995 
533.500000	-0.830920 
534.000000	-0.796573 
534.500000	-0.724395 
535.000000	-0.715741 
535.500000	-0.748219 
536.000000	-0.741996 
536.500000	-0.727256 
537.000000	-0.728149 
537.500000	-0.767135 
538.000000	-0.790817 
538.500000	-0.865832 
539.000000	-0.927066 
539.500000	-0.994652 
540.000000	-1.101841 
540.500000	-1.150182 
541.000000	-1.156578 
541.500000	-1.104260 
542.000000	-1.012079 
542.500000	-0.872990 
543.000000	-0.733946 
543.500000	-0.630160 
544.000000	-0.544840 
544.500000	-0.505761 
545.000000	-0.480999 
545.500000	-0.556679 
546.000000	-0.689497 
546.500000	-0.850463 
547.000000	-0.994024 
547.500000	-1.109010 
548.000000	-1.205179 
548.500000	-1.243080 
549.000000	-1.194111 
549.500000	-1.055889 
550.000000	-0.912508 
550.500000	-0.789333 
551.000000	-0.682468 
551.500000	-0.597309 
552.000000	-0.532516 
552.500000	-0.487920 
553.000000	-0.439050 
553.500000	-0.350038 
554.000000	-0.209829 
554.500000	-0.099868 
555.000000	-0.085202 
555.500000	-0.084476 
556.000000	-0.074900 
556.500000	-0.143682 
557.000000	-0.270655 
557.500000	-0.400939 
558.000000	-0.514596 
558.500000	-0.532146 
559.000000	-0.521673 
559.500000	-0.548160 
560.000000	-0.538306 
560.500000	-0.435949 
561.000000	-0.346590 
561.500000	-0.312001 
562.000000	-0.346288 
562.500000	-0.465748 
563.000000	-0.586389 
563.500000	-0.747632 
564.000000	-0.936085 
564.500000	-1.117840 
565.000000	-1.158358 
565.500000	-1.102457 
566.000000	-0.949298 
566.500000	-0.759562 
567.000000	-0.600395 
567.500000	-0.461759 
568.000000	-0.371976 
568.500000	-0.367893 
569.000000	-0.442699 
569.500000	-0.509063 
570.000000	-0.565649 
570.500000	-0.600787 
571.000000	-0.605732 
571.500000	-0.567361 
572.000000	-0.528401 
572.500000	-0.477837 
573.000000	-0.450149 
573.500000	-0.478163 
574.000000	-0.491841 
574.500000	-0.528012 
575.000000	-0.660424 
575.500000	-0.818553 
576.000000	-0.932029 
576.500000	-1.043115 
577.000000	-1.108430 
577.500000	-1.110423 
578.000000	-1.079961 
578.500000	-0.982125 
579.000000	-0.803379 
579.500000	-0.645295 
580.000000	-0.562940 
580.500000	-0.483622 
581.000000	-0.469267 
581.500000	-0.570477 
582.000000	-0.707505 
582.500000	-0.882766 
583.000000	-1.062757 
583.500000	-1.214980 
584.000000	-1.268549 
584.500000	-1.299470 
585.000000	-1.268669 
585.500000	-1.175835 
586.000000	-1.049643 
586.500000	-0.867556 
587.000000	-0.699218 
587.500000	-0.587699 
588.000000	-0.605784 
588.500000	-0.615375 
589.000000	-0.680459 
589.500000	-0.755084 
590.000000	-0.856157 
590.500000	-0.939242 
591.000000	-0.912091 
591.500000	-0.848571 
592.000000	-0.775403 
592.500000	-0.784962 
593.000000	-0.795449 
593.500000	-0.834567 
594.000000	-0.859167 
594.500000	-0.988631 
595.000000	-1.192728 
595.500000	-1.312612 
596.000000	-1.360562 
596.500000	-1.329704 
597.000000	-1.289432 
597.500000	-1.223132 
598.000000	-1.141817 
598.500000	-0.913549 
599.000000	-0.660534 
599.500000	-0.495066 
600.000000	-0.405288 
600.500000	-0.362083 
601.000000	-0.377862 
601.500000	-0.470130 
602.000000	-0.625206 
602.500000	-0.840299 
603.000000	-0.932059 
603.500000	-0.922282 
604.000000	-0.828651 
604.500000	-0.731157 
605.000000	-0.623344 
605.500000	-0.565762 
606.000000	-0.575740 
606.500000	-0.636622 
607.000000	-0.815317 
607.500000	-0.992129 
608.000000	-1.137682 
608.500000	-1.217919 
609.000000	-1.269566 
609.500000	-1.209144 
610.000000	-1.096375 
610.500000	-0.933462 
611.000000	-0.787730 
611.500000	-0.707577 
612.000000	-0.634018 
612.500000	-0.567260 
613.000000	-0.545369 
613.500000	-0.581984 
614.000000	-0.626237 
614.500000	-0.696541 
615.000000	-0.710082 
615.500000	-0.717733 
616.000000	-0.739914 
616.500000	-0.756955 
617.000000	-0.691441 
617.500000	-0.608961 
618.000000	-0.551800 
618.500000	-0.509784 
619.000000	-0.526066 
619.500000	-0.536206 
620.000000	-0.548837 
620.500000	-0.516352 
621.000000	-0.478202 
621.500000	-0.388549 
622.000000	-0.279053 
622.500000	-0.132992 
623.000000	0.037342  
623.500000	0.173980  
624.000000	0.203951  
624.500000	0.192269  
625.000000	0.201365  
625.500000	0.183940  
626.000000	0.183027  
626.500000	0.204930  
627.000000	0.275289  
627.500000	0.364434  
628.000000	0.506594  
628.500000	0.598246  
629.000000	0.689922  
629.500000	0.849269  
630.000000	0.941538  
630.500000	0.950602  
631.000000	0.848963  
631.500000	0.687525  
632.000000	0.416731  
632.500000	0.140830  
633.000000	-0.190409 
633.500000	-0.497497 
634.000000	-0.652874 
634.500000	-0.719352 
635.000000	-0.719903 
635.500000	-0.675807 
636.000000	-0.612422 
636.500000	-0.565995 
637.000000	-0.516057 
637.500000	-0.541643 
638.000000	-0.685859 
638.500000	-0.825645 
639.000000	-0.962831 
639.500000	-1.057981 
640.000000	-1.146050 
640.500000	-1.217497 
641.000000	-1.214804 
641.500000	-1.114004 
642.000000	-0.992041 
642.500000	-0.909994 
643.000000	-0.835253 
643.500000	-0.822343 
644.000000	-0.838524 
644.500000	-0.898073 
645.000000	-1.031544 
645.500000	-1.107828 
646.000000	-1.060839 
646.500000	-1.008129 
647.000000	-0.943893 
647.500000	-0.832736 
648.000000	-0.740638 
648.500000	-0.685447 
649.000000	-0.674613 
649.500000	-0.755155 
650.000000	-0.877546 
650.500000	-0.961684 
651.000000	-1.116561 
651.500000	-1.278607 
652.000000	-1.394935 
652.500000	-1.499765 
653.000000	-1.603401 
653.500000	-1.634027 
654.000000	-1.619050 
654.500000	-1.549110 
655.000000	-1.420372 
655.500000	-1.265115 
656.000000	-1.090178 
656.500000	-0.925382 
657.000000	-0.827871 
657.500000	-0.810177 
658.000000	-0.839848 
658.500000	-0.849286 
659.000000	-0.816473 
659.500000	-0.798444 
660.000000	-0.727781 
660.500000	-0.613936 
661.000000	-0.468050 
661.500000	-0.362115 
662.000000	-0.283150 
662.500000	-0.285941 
663.000000	-0.329380 
663.500000	-0.390015 
664.000000	-0.509118 
664.500000	-0.610506 
665.000000	-0.660420 
665.500000	-0.716521 
666.000000	-0.763186 
666.500000	-0.716353 
667.000000	-0.676004 
667.500000	-0.604052 
668.000000	-0.517938 
668.500000	-0.434465 
669.000000	-0.313333 
669.500000	-0.166108 
670.000000	-0.061688 
670.500000	-0.068114 
671.000000	-0.064116 
671.500000	-0.084786 
672.000000	-0.078371 
672.500000	-0.085184 
673.000000	-0.079964 
673.500000	-0.015751 
674.000000	0.144648  
674.500000	0.333973  
675.000000	0.468998  
675.500000	0.610345  
676.000000	0.719049  
676.500000	0.923985  
677.000000	1.129201  
677.500000	1.308148  
678.000000	1.488438  
678.500000	1.683172  
679.000000	1.880206  
679.500000	2.081817  
680.000000	2.274200  
680.500000	2.396931  
681.000000	2.605887  
681.500000	2.814751  
682.000000	2.959949  
682.500000	2.977446  
683.000000	2.964359  
683.500000	2.878815  
684.000000	2.785719  
684.500000	2.697638  
685.000000	2.649001  
685.500000	2.809379  
686.000000	3.134580  
686.500000	3.609658  
687.000000	4.046832  
687.500000	4.477594  
688.000000	4.965683  
688.500000	5.408974  
689.000000	5.650350  
689.500000	5.769311  
690.000000	5.832970  
690.500000	5.812725  
691.000000	5.844245  
691.500000	5.802052  
692.000000	5.753137  
692.500000	5.880065  
693.000000	6.081665  
693.500000	6.208429  
694.000000	6.353659  
694.500000	6.501582  
695.000000	6.589516  
695.500000	6.728479  
696.000000	6.967738  
696.500000	7.272537  
697.000000	7.702100  
697.500000	8.128263  
698.000000	8.452157  
698.500000	8.770057  
699.000000	9.018586  
699.500000	9.061122  
700.000000	8.919246  
700.500000	8.821937  
701.000000	8.815240  
701.500000	8.944359  
702.000000	9.127343  
702.500000	9.274526  
703.000000	9.501709  
703.500000	9.810250  
704.000000	10.036827 
704.500000	10.156094 
705.000000	10.356508 
705.500000	10.512606 
706.000000	10.624267 
706.500000	10.692233 
707.000000	10.658293 
707.500000	10.530845 
708.000000	10.429076 
708.500000	10.338944 
709.000000	10.287454 
709.500000	10.424908 
710.000000	10.689631 
710.500000	10.998024 
711.000000	11.327710 
711.500000	11.567282 
712.000000	11.655392 
712.500000	11.597703 
713.000000	11.485671 
713.500000	11.375727 
714.000000	11.341281 
714.500000	11.384112 
715.000000	11.482215 
715.500000	11.641574 
716.000000	11.757418 
716.500000	11.800689 
717.000000	11.735870 
717.500000	11.574874 
718.000000	11.421422 
718.500000	11.337382 
719.000000	11.362012 
719.500000	11.402175 
720.000000	11.518305 
720.500000	11.573774 
721.000000	11.612431 
721.500000	11.621453 
722.000000	11.508852 
722.500000	11.307938 
723.000000	11.115949 
723.500000	11.012887 
724.000000	10.956714 
724.500000	10.941519 
725.000000	10.862455 
725.500000	10.822075 
726.000000	10.881872 
726.500000	11.012662 
727.000000	11.131920 
727.500000	11.225582 
728.000000	11.379521 
728.500000	11.591484 
729.000000	11.824911 
729.500000	11.989043 
730.000000	12.086504 
730.500000	12.079595 
731.000000	12.003240 
731.500000	11.847507 
732.000000	11.626981 
732.500000	11.318160 
733.000000	11.087076 
733.500000	10.866327 
734.000000	10.696326 
734.500000	10.555688 
735.000000	10.463449 
735.500000	10.371217 
736.000000	10.291998 
736.500000	10.194135 
737.000000	10.113676 
737.500000	10.134402 
738.000000	10.171559 
738.500000	10.266376 
739.000000	10.321254 
739.500000	10.391461 
740.000000	10.394238 
740.500000	10.357929 
741.000000	10.243700 
741.500000	10.110551 
742.000000	10.057931 
742.500000	10.091625 
743.000000	10.239864 
743.500000	10.382311 
744.000000	10.495113 
744.500000	10.552836 
745.000000	10.520842 
745.500000	10.316314 
746.000000	9.959215  
746.500000	9.541873  
747.000000	9.165917  
747.500000	8.950033  
748.000000	8.827854  
748.500000	8.801413  
749.000000	8.890303  
749.500000	9.019124  
750.000000	9.196180  
750.500000	9.259123  
751.000000	9.271887  
751.500000	9.199412  
752.000000	9.122077  
752.500000	8.967677  
753.000000	8.770738  
753.500000	8.575250  
754.000000	8.378363  
754.500000	8.282580  
755.000000	8.086217  
755.500000	7.922648  
756.000000	7.717464  
756.500000	7.524581  
757.000000	7.299903  
757.500000	7.126870  
758.000000	7.018484  
758.500000	6.976667  
759.000000	7.001245  
759.500000	6.912048  
760.000000	6.825632  
760.500000	6.720290  
761.000000	6.483349  
761.500000	6.203396  
762.000000	5.930494  
762.500000	5.769226  
763.000000	5.766786  
763.500000	5.931509  
764.000000	6.122620  
764.500000	6.351273  
765.000000	6.708758  
765.500000	6.924432  
766.000000	7.018943  
766.500000	6.971248  
767.000000	6.868404  
767.500000	6.733399  
768.000000	6.567545  
768.500000	6.356082  
769.000000	6.121289  
769.500000	6.089023  
770.000000	6.039669  
770.500000	5.964318  
771.000000	5.866738  
771.500000	5.798270  
772.000000	5.715278  
772.500000	5.585951  
773.000000	5.452909  
773.500000	5.347560  
774.000000	5.361298  
774.500000	5.395195  
775.000000	5.383706  
775.500000	5.405864  
776.000000	5.329676  
776.500000	5.231958  
777.000000	5.068832  
777.500000	4.906309  
778.000000	4.834889  
778.500000	4.920327  
779.000000	4.996986  
779.500000	5.008597  
780.000000	5.022154  
780.500000	4.817877  
781.000000	4.508122  
781.500000	4.133297  
782.000000	3.746045  
782.500000	3.439859  
783.000000	3.306285  
783.500000	3.260041  
784.000000	3.280446  
784.500000	3.411516  
785.000000	3.375926  
785.500000	3.263865  
786.000000	3.175261  
786.500000	3.050507  
787.000000	2.979512  
787.500000	2.970502  
788.000000	2.986748  
788.500000	3.040842  
789.000000	3.149285  
789.500000	3.136705  
790.000000	3.036947  
790.500000	2.955545  
791.000000	2.873384  
791.500000	2.887207  
792.000000	2.921808  
792.500000	2.968641  
793.000000	3.024660  
793.500000	3.131524  
794.000000	3.092725  
794.500000	2.968486  
795.000000	2.820116  
795.500000	2.696643  
796.000000	2.632796  
796.500000	2.607983  
797.000000	2.551739  
797.500000	2.444878  
798.000000	2.376668  
798.500000	2.206741  
799.000000	1.990349  
799.500000	1.773047  
800.000000	1.609689  
800.500000	1.535528  
801.000000	1.569767  
801.500000	1.638860  
802.000000	1.691834  
802.500000	1.816923  
803.000000	1.879467  
803.500000	1.865474  
804.000000	1.831051  
804.500000	1.766914  
805.000000	1.736142  
805.500000	1.706857  
806.000000	1.679368  
806.500000	1.563887  
807.000000	1.460598  
807.500000	1.319593  
808.000000	1.122333  
808.500000	1.025084  
809.000000	1.008593  
809.500000	1.094179  
810.000000	1.214097  
810.500000	1.340116  
811.000000	1.341928  
811.500000	1.311173  
812.000000	1.238099  
812.500000	1.051310  
813.000000	0.790244  
813.500000	0.544091  
814.000000	0.401487  
814.500000	0.336510  
815.000000	0.361861  
815.500000	0.376902  
816.000000	0.380624  
816.500000	0.408114  
817.000000	0.461257  
817.500000	0.437322  
818.000000	0.407058  
818.500000	0.417994  
819.000000	0.464821  
819.500000	0.572249  
820.000000	0.702924  
820.500000	0.762240  
821.000000	0.750580  
821.500000	0.787518  
822.000000	0.747119  
822.500000	0.660583  
823.000000	0.571881  
823.500000	0.410672  
824.000000	0.282865  
824.500000	0.203142  
825.000000	0.193840  
825.500000	0.161280  
826.000000	0.183323  
826.500000	0.240785  
827.000000	0.340596  
827.500000	0.482740  
828.000000	0.555271  
828.500000	0.630538  
829.000000	0.639776  
829.500000	0.675423  
830.000000	0.648204  
830.500000	0.566924  
831.000000	0.483813  
831.500000	0.385845  
832.000000	0.363217  
832.500000	0.324298  
833.000000	0.335794  
833.500000	0.319728  
834.000000	0.341559  
834.500000	0.300158  
835.000000	0.198176  
835.500000	0.077353  
836.000000	-0.094867 
836.500000	-0.225538 
837.000000	-0.358249 
837.500000	-0.456325 
838.000000	-0.496479 
838.500000	-0.425858 
839.000000	-0.316128 
839.500000	-0.191382 
840.000000	-0.060556 
840.500000	-0.000368 
841.000000	0.043306  
841.500000	0.024535  
842.000000	-0.058572 
842.500000	-0.164265 
843.000000	-0.244180 
843.500000	-0.332101 
844.000000	-0.418645 
844.500000	-0.484763 
845.000000	-0.554037 
845.500000	-0.594427 
846.000000	-0.612558 
846.500000	-0.604695 
847.000000	-0.569617 
847.500000	-0.492448 
848.000000	-0.402464 
848.500000	-0.340957 
849.000000	-0.276181 
849.500000	-0.235168 
850.000000	-0.205382 
850.500000	-0.226872 
851.000000	-0.290613 
851.500000	-0.370872 
852.000000	-0.398949 
852.500000	-0.412521 
853.000000	-0.430703 
853.500000	-0.422452 
854.000000	-0.425198 
854.500000	-0.397108 
855.000000	-0.377422 
855.500000	-0.384612 
856.000000	-0.410829 
856.500000	-0.387870 
857.000000	-0.384602 
857.500000	-0.425605 
858.000000	-0.455071 
858.500000	-0.516386 
859.000000	-0.575419 
859.500000	-0.616590 
860.000000	-0.685373 
860.500000	-0.789340 
861.000000	-0.833642 
861.500000	-0.887698 
862.000000	-0.963563 
862.500000	-0.991546 
863.000000	-1.036178 
863.500000	-1.097453 
864.000000	-1.101509 
864.500000	-1.077333 
865.000000	-1.038513 
865.500000	-0.916847 
866.000000	-0.778455 
866.500000	-0.645757 
867.000000	-0.505448 
867.500000	-0.455629 
868.000000	-0.501881 
868.500000	-0.557281 
869.000000	-0.633584 
869.500000	-0.722882 
870.000000	-0.763935 
870.500000	-0.802706 
871.000000	-0.817187 
871.500000	-0.774255 
872.000000	-0.725732 
872.500000	-0.704495 
873.000000	-0.691644 
873.500000	-0.680868 
874.000000	-0.688902 
874.500000	-0.660790 
875.000000	-0.614189 
875.500000	-0.595245 
876.000000	-0.604284 
876.500000	-0.606885 
877.000000	-0.691500 
877.500000	-0.837231 
878.000000	-0.947858 
878.500000	-0.998306 
879.000000	-0.960876 
879.500000	-0.822644 
880.000000	-0.666722 
880.500000	-0.572391 
881.000000	-0.498499 
881.500000	-0.512421 
882.000000	-0.632587 
882.500000	-0.772183 
883.000000	-0.810613 
883.500000	-0.815469 
884.000000	-0.784703 
884.500000	-0.798363 
885.000000	-0.960148 
885.500000	-1.249687 
886.000000	-1.655138 
886.500000	-1.976092 
887.000000	-2.238395 
887.500000	-2.281625 
888.000000	-2.133605 
888.500000	-1.813004 
889.000000	-1.337561 
889.500000	-0.869777 
890.000000	-0.590994 
890.500000	-0.609538 
891.000000	-0.554740 
891.500000	-0.536542 
892.000000	-0.554612 
892.500000	-0.647976 
893.000000	-0.639194 
893.500000	-0.543906 
894.000000	-0.444651 
894.500000	-0.411266 

