PE FL                   SPECTRUM    ASCII       PEDS        1.60        
  -1
PM547A~1
23/10/14
20:34:11.00
23/10/14
20:34:11.00


894.500000
1









LS55
316.00
5.00
5.00
SCAN
1
20
100
500
0
100
0
1
0
1
7
ON
435 365 
1 0 0
#HDR
-1
-1
#GR
NM

0.00002384185791015625
0.0
330.000000
0.500000
1130
8
51.567617
-0.999730
#DATA
330.000000	7.026000  
330.500000	6.374062  
331.000000	5.924760  
331.500000	5.653173  
332.000000	5.642305  
332.500000	5.848010  
333.000000	6.250884  
333.500000	6.741999  
334.000000	7.340679  
334.500000	7.921626  
335.000000	8.426002  
335.500000	9.061515  
336.000000	9.887797  
336.500000	10.762105 
337.000000	11.663543 
337.500000	12.705069 
338.000000	13.746730 
338.500000	14.810805 
339.000000	15.792962 
339.500000	16.605321 
340.000000	17.351762 
340.500000	18.161098 
341.000000	18.904155 
341.500000	19.504053 
342.000000	20.095864 
342.500000	20.645400 
343.000000	21.214687 
343.500000	21.784174 
344.000000	22.338045 
344.500000	22.917686 
345.000000	23.642448 
345.500000	24.533844 
346.000000	25.486619 
346.500000	26.678508 
347.000000	27.909705 
347.500000	29.193147 
348.000000	30.469515 
348.500000	31.710295 
349.000000	32.874751 
349.500000	33.764635 
350.000000	34.461246 
350.500000	34.990967 
351.000000	35.508721 
351.500000	35.978294 
352.000000	36.411308 
352.500000	36.987615 
353.000000	37.761974 
353.500000	38.708840 
354.000000	39.656020 
354.500000	40.640319 
355.000000	41.461468 
355.500000	42.240044 
356.000000	42.954655 
356.500000	43.502789 
357.000000	44.041911 
357.500000	44.528859 
358.000000	44.990121 
358.500000	45.354274 
359.000000	45.712515 
359.500000	45.857342 
360.000000	45.852736 
360.500000	45.714115 
361.000000	45.362500 
361.500000	44.991040 
362.000000	44.557601 
362.500000	44.217865 
363.000000	43.887600 
363.500000	43.754537 
364.000000	43.620320 
364.500000	43.656828 
365.000000	43.785995 
365.500000	43.952191 
366.000000	44.175207 
366.500000	44.260532 
367.000000	44.282806 
367.500000	44.072070 
368.000000	43.649082 
368.500000	43.064535 
369.000000	42.376221 
369.500000	41.728027 
370.000000	41.172649 
370.500000	40.668855 
371.000000	40.238080 
371.500000	39.826871 
372.000000	39.377105 
372.500000	38.786088 
373.000000	38.208387 
373.500000	37.614446 
374.000000	37.034992 
374.500000	36.476174 
375.000000	36.013654 
375.500000	35.654179 
376.000000	35.280620 
376.500000	34.868103 
377.000000	34.212527 
377.500000	33.630282 
378.000000	33.028690 
378.500000	32.444397 
379.000000	31.772246 
379.500000	31.173317 
380.000000	30.730705 
380.500000	30.345554 
381.000000	29.984302 
381.500000	29.568501 
382.000000	29.253305 
382.500000	28.974588 
383.000000	28.853564 
383.500000	28.594404 
384.000000	28.288127 
384.500000	27.996692 
385.000000	27.667013 
385.500000	27.228620 
386.000000	26.726068 
386.500000	26.235219 
387.000000	25.596647 
387.500000	25.059386 
388.000000	24.592417 
388.500000	24.158378 
389.000000	23.875218 
389.500000	23.713177 
390.000000	23.584991 
390.500000	23.514268 
391.000000	23.397901 
391.500000	23.031233 
392.000000	22.490786 
392.500000	21.971736 
393.000000	21.482572 
393.500000	20.991933 
394.000000	20.649393 
394.500000	20.518878 
395.000000	20.555433 
395.500000	20.709972 
396.000000	20.816179 
396.500000	20.787661 
397.000000	20.741632 
397.500000	20.622080 
398.000000	20.301620 
398.500000	19.911221 
399.000000	19.655749 
399.500000	19.440141 
400.000000	19.295856 
400.500000	19.167575 
401.000000	19.015915 
401.500000	18.920134 
402.000000	18.822987 
402.500000	18.640013 
403.000000	18.424663 
403.500000	18.221194 
404.000000	17.938139 
404.500000	17.679953 
405.000000	17.393715 
405.500000	17.155315 
406.000000	16.997262 
406.500000	16.840263 
407.000000	16.644903 
407.500000	16.502106 
408.000000	16.357150 
408.500000	16.146352 
409.000000	15.905235 
409.500000	15.650803 
410.000000	15.380881 
410.500000	15.130442 
411.000000	14.865350 
411.500000	14.567984 
412.000000	14.341995 
412.500000	14.061536 
413.000000	13.809531 
413.500000	13.591892 
414.000000	13.475414 
414.500000	13.350419 
415.000000	13.300062 
415.500000	13.219728 
416.000000	13.045626 
416.500000	12.730652 
417.000000	12.163914 
417.500000	11.521114 
418.000000	10.860417 
418.500000	10.367042 
419.000000	9.921405  
419.500000	9.698361  
420.000000	9.608417  
420.500000	9.589710  
421.000000	9.574166  
421.500000	9.419950  
422.000000	9.263123  
422.500000	9.071627  
423.000000	8.901751  
423.500000	8.699982  
424.000000	8.589864  
424.500000	8.483865  
425.000000	8.345030  
425.500000	8.130516  
426.000000	7.780075  
426.500000	7.486691  
427.000000	7.219952  
427.500000	6.982528  
428.000000	6.814763  
428.500000	6.801393  
429.000000	6.845534  
429.500000	6.885258  
430.000000	6.831490  
430.500000	6.611137  
431.000000	6.335786  
431.500000	5.973271  
432.000000	5.531228  
432.500000	5.026290  
433.000000	4.692966  
433.500000	4.556957  
434.000000	4.525811  
434.500000	4.591619  
435.000000	4.751239  
435.500000	4.936880  
436.000000	5.050095  
436.500000	5.158700  
437.000000	5.133028  
437.500000	5.097282  
438.000000	5.070960  
438.500000	4.968596  
439.000000	4.734003  
439.500000	4.471005  
440.000000	4.179743  
440.500000	3.792304  
441.000000	3.470768  
441.500000	3.230893  
442.000000	3.115215  
442.500000	3.104254  
443.000000	3.167857  
443.500000	3.144235  
444.000000	3.158758  
444.500000	3.147764  
445.000000	2.992963  
445.500000	2.831963  
446.000000	2.749304  
446.500000	2.719669  
447.000000	2.744013  
447.500000	2.845154  
448.000000	2.787507  
448.500000	2.757926  
449.000000	2.677671  
449.500000	2.553133  
450.000000	2.431147  
450.500000	2.382222  
451.000000	2.300626  
451.500000	2.331109  
452.000000	2.472433  
452.500000	2.524945  
453.000000	2.587252  
453.500000	2.545669  
454.000000	2.460042  
454.500000	2.316559  
455.000000	2.141622  
455.500000	1.790252  
456.000000	1.433323  
456.500000	1.169967  
457.000000	0.956027  
457.500000	0.842481  
458.000000	0.773840  
458.500000	0.789301  
459.000000	0.904978  
459.500000	1.129627  
460.000000	1.269128  
460.500000	1.345951  
461.000000	1.396262  
461.500000	1.411624  
462.000000	1.383852  
462.500000	1.329127  
463.000000	1.204704  
463.500000	1.084723  
464.000000	0.982924  
464.500000	0.842782  
465.000000	0.706402  
465.500000	0.660405  
466.000000	0.683414  
466.500000	0.715784  
467.000000	0.785378  
467.500000	0.862966  
468.000000	0.965711  
468.500000	1.032673  
469.000000	0.994275  
469.500000	0.922062  
470.000000	0.867772  
470.500000	0.857496  
471.000000	0.832614  
471.500000	0.809211  
472.000000	0.813078  
472.500000	0.840282  
473.000000	0.858890  
473.500000	0.801311  
474.000000	0.732290  
474.500000	0.704282  
475.000000	0.753956  
475.500000	0.779995  
476.000000	0.807087  
476.500000	0.826837  
477.000000	0.793483  
477.500000	0.767346  
478.000000	0.696405  
478.500000	0.605888  
479.000000	0.474512  
479.500000	0.436304  
480.000000	0.380214  
480.500000	0.342719  
481.000000	0.345639  
481.500000	0.305736  
482.000000	0.313965  
482.500000	0.369465  
483.000000	0.460477  
483.500000	0.494816  
484.000000	0.590623  
484.500000	0.590872  
485.000000	0.564746  
485.500000	0.585537  
486.000000	0.577898  
486.500000	0.596707  
487.000000	0.629522  
487.500000	0.707361  
488.000000	0.719114  
488.500000	0.751553  
489.000000	0.676749  
489.500000	0.514208  
490.000000	0.339665  
490.500000	0.135908  
491.000000	-0.031149 
491.500000	-0.134690 
492.000000	-0.154170 
492.500000	-0.120571 
493.000000	-0.032238 
493.500000	0.062581  
494.000000	0.136472  
494.500000	0.192216  
495.000000	0.188196  
495.500000	0.132413  
496.000000	0.058893  
496.500000	0.036328  
497.000000	0.039256  
497.500000	0.027204  
498.000000	0.077284  
498.500000	0.162591  
499.000000	0.275591  
499.500000	0.390396  
500.000000	0.448145  
500.500000	0.432780  
501.000000	0.402231  
501.500000	0.375776  
502.000000	0.333188  
502.500000	0.257607  
503.000000	0.208141  
503.500000	0.141902  
504.000000	0.078280  
504.500000	0.010613  
505.000000	-0.129304 
505.500000	-0.236378 
506.000000	-0.306139 
506.500000	-0.316167 
507.000000	-0.315336 
507.500000	-0.238739 
508.000000	-0.110152 
508.500000	0.057672  
509.000000	0.231310  
509.500000	0.298491  
510.000000	0.328991  
510.500000	0.281813  
511.000000	0.195042  
511.500000	0.007482  
512.000000	-0.184471 
512.500000	-0.329307 
513.000000	-0.391588 
513.500000	-0.364726 
514.000000	-0.343889 
514.500000	-0.225443 
515.000000	-0.076542 
515.500000	0.076251  
516.000000	0.177820  
516.500000	0.239156  
517.000000	0.240733  
517.500000	0.222087  
518.000000	0.179500  
518.500000	0.061507  
519.000000	-0.014160 
519.500000	-0.054822 
520.000000	-0.046681 
520.500000	-0.049964 
521.000000	-0.029681 
521.500000	-0.013102 
522.000000	0.022105  
522.500000	0.045128  
523.000000	0.017107  
523.500000	0.024294  
524.000000	0.077692  
524.500000	0.195345  
525.000000	0.336697  
525.500000	0.492832  
526.000000	0.613674  
526.500000	0.717075  
527.000000	0.718520  
527.500000	0.619025  
528.000000	0.465258  
528.500000	0.258680  
529.000000	0.043039  
529.500000	-0.125509 
530.000000	-0.212860 
530.500000	-0.229847 
531.000000	-0.146011 
531.500000	-0.057660 
532.000000	0.071135  
532.500000	0.231168  
533.000000	0.384022  
533.500000	0.399439  
534.000000	0.317842  
534.500000	0.178754  
535.000000	0.005869  
535.500000	-0.149884 
536.000000	-0.308321 
536.500000	-0.433862 
537.000000	-0.444727 
537.500000	-0.317127 
538.000000	-0.158437 
538.500000	0.002926  
539.000000	0.139920  
539.500000	0.187349  
540.000000	0.170346  
540.500000	0.097560  
541.000000	-0.079156 
541.500000	-0.290639 
542.000000	-0.462292 
542.500000	-0.595988 
543.000000	-0.640198 
543.500000	-0.600680 
544.000000	-0.569587 
544.500000	-0.527588 
545.000000	-0.435778 
545.500000	-0.361147 
546.000000	-0.313427 
546.500000	-0.309510 
547.000000	-0.326317 
547.500000	-0.317958 
548.000000	-0.232047 
548.500000	-0.140208 
549.000000	-0.038323 
549.500000	0.064472  
550.000000	0.174687  
550.500000	0.254861  
551.000000	0.292536  
551.500000	0.282605  
552.000000	0.224977  
552.500000	0.186858  
553.000000	0.169831  
553.500000	0.176619  
554.000000	0.176217  
554.500000	0.148483  
555.000000	0.115254  
555.500000	0.008982  
556.000000	-0.122674 
556.500000	-0.348009 
557.000000	-0.544655 
557.500000	-0.691751 
558.000000	-0.764553 
558.500000	-0.759282 
559.000000	-0.770722 
559.500000	-0.758515 
560.000000	-0.789970 
560.500000	-0.822319 
561.000000	-0.918710 
561.500000	-0.965133 
562.000000	-0.951273 
562.500000	-0.904860 
563.000000	-0.820972 
563.500000	-0.758847 
564.000000	-0.688959 
564.500000	-0.672856 
565.000000	-0.664954 
565.500000	-0.717608 
566.000000	-0.774619 
566.500000	-0.744601 
567.000000	-0.641583 
567.500000	-0.523483 
568.000000	-0.400512 
568.500000	-0.293291 
569.000000	-0.223293 
569.500000	-0.188846 
570.000000	-0.190908 
570.500000	-0.306926 
571.000000	-0.359534 
571.500000	-0.344687 
572.000000	-0.321750 
572.500000	-0.263528 
573.000000	-0.197809 
573.500000	-0.157813 
574.000000	-0.118552 
574.500000	-0.049468 
575.000000	-0.073983 
575.500000	-0.066277 
576.000000	-0.102378 
576.500000	-0.160317 
577.000000	-0.171492 
577.500000	-0.115288 
578.000000	-0.065883 
578.500000	-0.057085 
579.000000	-0.010205 
579.500000	0.039477  
580.000000	0.155424  
580.500000	0.189764  
581.000000	0.163998  
581.500000	0.115944  
582.000000	0.108824  
582.500000	0.052190  
583.000000	-0.089046 
583.500000	-0.220390 
584.000000	-0.289963 
584.500000	-0.269255 
585.000000	-0.256805 
585.500000	-0.256788 
586.000000	-0.298916 
586.500000	-0.317200 
587.000000	-0.349677 
587.500000	-0.453723 
588.000000	-0.541495 
588.500000	-0.574990 
589.000000	-0.553984 
589.500000	-0.484798 
590.000000	-0.371582 
590.500000	-0.266221 
591.000000	-0.173435 
591.500000	-0.110512 
592.000000	-0.105775 
592.500000	-0.116386 
593.000000	-0.108837 
593.500000	-0.108169 
594.000000	-0.099573 
594.500000	-0.068087 
595.000000	-0.039680 
595.500000	-0.038229 
596.000000	-0.072500 
596.500000	-0.124784 
597.000000	-0.172362 
597.500000	-0.181983 
598.000000	-0.170412 
598.500000	-0.150161 
599.000000	-0.113563 
599.500000	-0.063983 
600.000000	-0.037042 
600.500000	-0.025513 
601.000000	-0.027655 
601.500000	-0.071663 
602.000000	-0.103465 
602.500000	-0.107650 
603.000000	-0.107486 
603.500000	-0.108952 
604.000000	-0.095558 
604.500000	-0.099891 
605.000000	-0.130569 
605.500000	-0.185489 
606.000000	-0.290336 
606.500000	-0.367346 
607.000000	-0.396214 
607.500000	-0.390126 
608.000000	-0.343645 
608.500000	-0.218063 
609.000000	-0.076122 
609.500000	0.033160  
610.000000	0.037951  
610.500000	-0.044771 
611.000000	-0.175688 
611.500000	-0.366350 
612.000000	-0.604037 
612.500000	-0.853459 
613.000000	-0.999730 
613.500000	-0.973725 
614.000000	-0.820001 
614.500000	-0.673747 
615.000000	-0.539758 
615.500000	-0.298685 
616.000000	0.018349  
616.500000	0.407205  
617.000000	0.822693  
617.500000	1.470080  
618.000000	2.469249  
618.500000	3.834029  
619.000000	5.480899  
619.500000	7.306851  
620.000000	9.315398  
620.500000	11.573132 
621.000000	13.995278 
621.500000	16.468096 
622.000000	19.209633 
622.500000	22.207361 
623.000000	25.487314 
623.500000	29.063422 
624.000000	32.809636 
624.500000	36.492749 
625.000000	39.992442 
625.500000	43.198007 
626.000000	45.859923 
626.500000	48.199401 
627.000000	50.019750 
627.500000	51.161034 
628.000000	51.567617 
628.500000	51.258708 
629.000000	50.114419 
629.500000	48.073140 
630.000000	45.216949 
630.500000	41.663235 
631.000000	37.980981 
631.500000	34.335353 
632.000000	30.823273 
632.500000	27.473496 
633.000000	24.319551 
633.500000	21.390510 
634.000000	18.492656 
634.500000	15.622828 
635.000000	12.667646 
635.500000	9.872125  
636.000000	7.427134  
636.500000	5.412555  
637.000000	3.865582  
637.500000	2.708292  
638.000000	1.881265  
638.500000	1.318757  
639.000000	0.932909  
639.500000	0.588030  
640.000000	0.252859  
640.500000	-0.006847 
641.000000	-0.196112 
641.500000	-0.278361 
642.000000	-0.267622 
642.500000	-0.250385 
643.000000	-0.204184 
643.500000	-0.125221 
644.000000	-0.041299 
644.500000	-0.014360 
645.000000	-0.012905 
645.500000	-0.090600 
646.000000	-0.178237 
646.500000	-0.231298 
647.000000	-0.316216 
647.500000	-0.350846 
648.000000	-0.386294 
648.500000	-0.348067 
649.000000	-0.261037 
649.500000	-0.132702 
650.000000	-0.030340 
650.500000	0.083781  
651.000000	0.227722  
651.500000	0.298935  
652.000000	0.328031  
652.500000	0.266492  
653.000000	0.225658  
653.500000	0.187821  
654.000000	0.225999  
654.500000	0.264769  
655.000000	0.358881  
655.500000	0.536312  
656.000000	0.686003  
656.500000	0.814393  
657.000000	0.788824  
657.500000	0.705659  
658.000000	0.526822  
658.500000	0.337297  
659.000000	0.111861  
659.500000	-0.051462 
660.000000	-0.061669 
660.500000	0.004658  
661.000000	0.209307  
661.500000	0.416375  
662.000000	0.659936  
662.500000	0.904857  
663.000000	1.109827  
663.500000	1.209415  
664.000000	1.232237  
664.500000	1.188851  
665.000000	1.085552  
665.500000	1.073096  
666.000000	1.043693  
666.500000	1.004255  
667.000000	1.044782  
667.500000	1.144147  
668.000000	1.223349  
668.500000	1.262255  
669.000000	1.294298  
669.500000	1.349213  
670.000000	1.498120  
670.500000	1.744564  
671.000000	1.941409  
671.500000	2.104733  
672.000000	2.321146  
672.500000	2.573669  
673.000000	2.780104  
673.500000	2.926882  
674.000000	3.052542  
674.500000	3.254126  
675.000000	3.586416  
675.500000	3.915305  
676.000000	4.160918  
676.500000	4.371629  
677.000000	4.569678  
677.500000	4.716313  
678.000000	4.791936  
678.500000	4.807161  
679.000000	4.877622  
679.500000	5.056715  
680.000000	5.308863  
680.500000	5.607057  
681.000000	5.844858  
681.500000	5.971305  
682.000000	6.031251  
682.500000	6.002649  
683.000000	5.904066  
683.500000	5.868591  
684.000000	5.897352  
684.500000	6.096271  
685.000000	6.484090  
685.500000	7.032709  
686.000000	7.641452  
686.500000	8.241998  
687.000000	8.708914  
687.500000	9.062930  
688.000000	9.260121  
688.500000	9.303149  
689.000000	9.367891  
689.500000	9.435174  
690.000000	9.527485  
690.500000	9.693806  
691.000000	9.924716  
691.500000	10.123774 
692.000000	10.310750 
692.500000	10.450938 
693.000000	10.549879 
693.500000	10.752129 
694.000000	10.991054 
694.500000	11.222169 
695.000000	11.449540 
695.500000	11.768847 
696.000000	12.119032 
696.500000	12.384634 
697.000000	12.577473 
697.500000	12.722496 
698.000000	12.938454 
698.500000	13.186940 
699.000000	13.434888 
699.500000	13.585416 
700.000000	13.702396 
700.500000	13.805958 
701.000000	13.767956 
701.500000	13.583280 
702.000000	13.254298 
702.500000	12.954807 
703.000000	12.818519 
703.500000	12.850515 
704.000000	12.853162 
704.500000	12.910068 
705.000000	13.058305 
705.500000	13.306264 
706.000000	13.513364 
706.500000	13.598746 
707.000000	13.627449 
707.500000	13.735149 
708.000000	13.973782 
708.500000	14.156532 
709.000000	14.302381 
709.500000	14.375447 
710.000000	14.587784 
710.500000	14.848132 
711.000000	15.139750 
711.500000	15.422712 
712.000000	15.718041 
712.500000	16.102951 
713.000000	16.401564 
713.500000	16.571162 
714.000000	16.484898 
714.500000	16.338194 
715.000000	16.071942 
715.500000	15.775517 
716.000000	15.577256 
716.500000	15.406349 
717.000000	15.374219 
717.500000	15.502510 
718.000000	15.706410 
718.500000	15.933250 
719.000000	16.241088 
719.500000	16.420782 
720.000000	16.468578 
720.500000	16.529280 
721.000000	16.504626 
721.500000	16.436324 
722.000000	16.440821 
722.500000	16.355567 
723.000000	16.390811 
723.500000	16.529538 
724.000000	16.633303 
724.500000	16.603696 
725.000000	16.425752 
725.500000	16.133026 
726.000000	15.764001 
726.500000	15.534544 
727.000000	15.291202 
727.500000	15.172027 
728.000000	15.270911 
728.500000	15.588760 
729.000000	16.044699 
729.500000	16.486238 
730.000000	16.816078 
730.500000	16.956902 
731.000000	17.083064 
731.500000	17.128836 
732.000000	16.973252 
732.500000	16.615249 
733.000000	16.204785 
733.500000	15.792198 
734.000000	15.449334 
734.500000	15.207231 
735.000000	14.965919 
735.500000	14.802113 
736.000000	14.854977 
736.500000	14.912632 
737.000000	15.040776 
737.500000	15.236992 
738.000000	15.355203 
738.500000	15.542810 
739.000000	15.803956 
739.500000	15.989683 
740.000000	16.086880 
740.500000	16.141587 
741.000000	16.112019 
741.500000	15.932382 
742.000000	15.679193 
742.500000	15.331311 
743.000000	14.970730 
743.500000	14.703644 
744.000000	14.523199 
744.500000	14.425542 
745.000000	14.423707 
745.500000	14.516218 
746.000000	14.597178 
746.500000	14.605350 
747.000000	14.597340 
747.500000	14.520416 
748.000000	14.379747 
748.500000	14.233861 
749.000000	14.121648 
749.500000	13.974784 
750.000000	13.959006 
750.500000	14.006582 
751.000000	14.069079 
751.500000	14.252245 
752.000000	14.304831 
752.500000	14.166575 
753.000000	13.969277 
753.500000	13.729599 
754.000000	13.329443 
754.500000	12.868701 
755.000000	12.497571 
755.500000	12.214141 
756.000000	12.180328 
756.500000	12.213646 
757.000000	12.231095 
757.500000	12.322182 
758.000000	12.480973 
758.500000	12.538197 
759.000000	12.442351 
759.500000	12.272893 
760.000000	12.055620 
760.500000	11.885303 
761.000000	11.736967 
761.500000	11.554329 
762.000000	11.402062 
762.500000	11.374074 
763.000000	11.388292 
763.500000	11.331881 
764.000000	11.187795 
764.500000	10.943821 
765.000000	10.665765 
765.500000	10.328932 
766.000000	9.951484  
766.500000	9.508545  
767.000000	9.139411  
767.500000	8.920714  
768.000000	8.908779  
768.500000	9.005710  
769.000000	9.084713  
769.500000	9.258295  
770.000000	9.409918  
770.500000	9.521929  
771.000000	9.456896  
771.500000	9.251392  
772.000000	9.037445  
772.500000	8.868576  
773.000000	8.769374  
773.500000	8.544498  
774.000000	8.350043  
774.500000	8.165201  
775.000000	8.064456  
775.500000	7.964861  
776.000000	7.803127  
776.500000	7.698612  
777.000000	7.710299  
777.500000	7.838571  
778.000000	7.957781  
778.500000	8.004807  
779.000000	7.982571  
779.500000	7.959710  
780.000000	7.851578  
780.500000	7.595131  
781.000000	7.279236  
781.500000	6.990891  
782.000000	6.787657  
782.500000	6.634498  
783.000000	6.510559  
783.500000	6.362624  
784.000000	6.287835  
784.500000	6.195201  
785.000000	6.036333  
785.500000	5.852737  
786.000000	5.679029  
786.500000	5.515695  
787.000000	5.345628  
787.500000	5.180493  
788.000000	4.958901  
788.500000	4.820567  
789.000000	4.767929  
789.500000	4.712408  
790.000000	4.753111  
790.500000	4.842117  
791.000000	4.940500  
791.500000	5.070831  
792.000000	5.244762  
792.500000	5.369309  
793.000000	5.503314  
793.500000	5.651633  
794.000000	5.705085  
794.500000	5.733190  
795.000000	5.749185  
795.500000	5.640137  
796.000000	5.501272  
796.500000	5.310562  
797.000000	5.123382  
797.500000	4.918400  
798.000000	4.785706  
798.500000	4.585777  
799.000000	4.320366  
799.500000	4.092140  
800.000000	3.907410  
800.500000	3.718651  
801.000000	3.525171  
801.500000	3.395730  
802.000000	3.301111  
802.500000	3.332974  
803.000000	3.394280  
803.500000	3.395190  
804.000000	3.297367  
804.500000	3.204089  
805.000000	3.048646  
805.500000	2.930234  
806.000000	2.919155  
806.500000	2.906769  
807.000000	2.948189  
807.500000	3.048249  
808.000000	3.159223  
808.500000	3.145337  
809.000000	3.042204  
809.500000	2.790646  
810.000000	2.565931  
810.500000	2.432618  
811.000000	2.350165  
811.500000	2.323236  
812.000000	2.421151  
812.500000	2.682178  
813.000000	2.951215  
813.500000	3.166350  
814.000000	3.289165  
814.500000	3.305034  
815.000000	3.213358  
815.500000	3.041164  
816.000000	2.859722  
816.500000	2.659332  
817.000000	2.518584  
817.500000	2.408005  
818.000000	2.307303  
818.500000	2.296395  
819.000000	2.333470  
819.500000	2.346975  
820.000000	2.343670  
820.500000	2.374759  
821.000000	2.340194  
821.500000	2.251916  
822.000000	2.086960  
822.500000	1.905575  
823.000000	1.791496  
823.500000	1.736345  
824.000000	1.672723  
824.500000	1.687653  
825.000000	1.814509  
825.500000	1.919214  
826.000000	1.963600  
826.500000	1.887785  
827.000000	1.749667  
827.500000	1.572966  
828.000000	1.363132  
828.500000	1.094723  
829.000000	0.874824  
829.500000	0.715897  
830.000000	0.588267  
830.500000	0.492893  
831.000000	0.367098  
831.500000	0.312462  
832.000000	0.374305  
832.500000	0.499393  
833.000000	0.611960  
833.500000	0.734744  
834.000000	0.824407  
834.500000	0.887402  
835.000000	0.949941  
835.500000	0.935606  
836.000000	0.879498  
836.500000	0.859758  
837.000000	0.833536  
837.500000	0.803918  
838.000000	0.764252  
838.500000	0.624160  
839.000000	0.468110  
839.500000	0.319212  
840.000000	0.145881  
840.500000	0.051163  
841.000000	0.037607  
841.500000	0.099711  
842.000000	0.288282  
842.500000	0.548155  
843.000000	0.752008  
843.500000	0.907666  
844.000000	0.995447  
844.500000	0.912397  
845.000000	0.829578  
845.500000	0.670082  
846.000000	0.430612  
846.500000	0.234933  
847.000000	0.087984  
847.500000	-0.011026 
848.000000	-0.032263 
848.500000	-0.009796 
849.000000	-0.020604 
849.500000	0.062753  
850.000000	0.159999  
850.500000	0.216757  
851.000000	0.283603  
851.500000	0.345843  
852.000000	0.397354  
852.500000	0.430157  
853.000000	0.399762  
853.500000	0.284648  
854.000000	0.175108  
854.500000	0.087931  
855.000000	0.006869  
855.500000	-0.051822 
856.000000	-0.075181 
856.500000	-0.043331 
857.000000	0.021685  
857.500000	0.048849  
858.000000	0.019327  
858.500000	-0.028497 
859.000000	-0.080307 
859.500000	-0.109018 
860.000000	-0.087855 
860.500000	-0.019625 
861.000000	0.039881  
861.500000	0.082311  
862.000000	0.104699  
862.500000	0.063889  
863.000000	-0.011394 
863.500000	-0.140132 
864.000000	-0.269757 
864.500000	-0.359384 
865.000000	-0.382630 
865.500000	-0.355093 
866.000000	-0.293432 
866.500000	-0.215883 
867.000000	-0.173326 
867.500000	-0.058185 
868.000000	0.018660  
868.500000	0.084199  
869.000000	0.116311  
869.500000	0.153397  
870.000000	0.162240  
870.500000	0.135487  
871.000000	0.098588  
871.500000	-0.004427 
872.000000	-0.066470 
872.500000	-0.091822 
873.000000	-0.042255 
873.500000	0.032178  
874.000000	0.143421  
874.500000	0.236652  
875.000000	0.281645  
875.500000	0.281291  
876.000000	0.178626  
876.500000	0.020822  
877.000000	-0.158054 
877.500000	-0.317429 
878.000000	-0.478639 
878.500000	-0.550972 
879.000000	-0.596931 
879.500000	-0.648246 
880.000000	-0.688353 
880.500000	-0.712454 
881.000000	-0.745607 
881.500000	-0.782123 
882.000000	-0.808478 
882.500000	-0.840069 
883.000000	-0.822601 
883.500000	-0.777299 
884.000000	-0.742027 
884.500000	-0.708359 
885.000000	-0.670745 
885.500000	-0.593725 
886.000000	-0.516444 
886.500000	-0.433960 
887.000000	-0.356471 
887.500000	-0.287764 
888.000000	-0.209092 
888.500000	-0.171931 
889.000000	-0.163580 
889.500000	-0.199557 
890.000000	-0.244289 
890.500000	-0.300674 
891.000000	-0.353938 
891.500000	-0.374439 
892.000000	-0.409012 
892.500000	-0.418368 
893.000000	-0.440114 
893.500000	-0.431591 
894.000000	-0.392217 
894.500000	-0.367980 

