PE FL                   SPECTRUM    ASCII       PEDS        1.60        
  -1
PMEFF7~1
23/10/14
21:15:32.00
23/10/14
21:15:32.00


894.500000
1









LS55
316.00
5.00
5.00
SCAN
1
20
100
500
0
100
0
1
0
1
7
ON
900 316 
1 0 0
#HDR
-1
-1
#GR
NM

0.00002384185791015625
0.0
330.000000
0.500000
1130
8
19.316361
-2.067374
#DATA
330.000000	-0.917000 
330.500000	-1.002335 
331.000000	-1.085563 
331.500000	-1.077202 
332.000000	-1.025081 
332.500000	-0.869222 
333.000000	-0.729505 
333.500000	-0.481631 
334.000000	-0.143557 
334.500000	0.225601  
335.000000	0.641129  
335.500000	1.079315  
336.000000	1.604427  
336.500000	2.149816  
337.000000	2.641235  
337.500000	3.047280  
338.000000	3.421682  
338.500000	3.809812  
339.000000	4.081415  
339.500000	4.314390  
340.000000	4.510654  
340.500000	4.755956  
341.000000	5.049434  
341.500000	5.324682  
342.000000	5.710445  
342.500000	6.211343  
343.000000	6.936264  
343.500000	7.676926  
344.000000	8.450274  
344.500000	9.282396  
345.000000	10.053720 
345.500000	10.780600 
346.000000	11.333862 
346.500000	11.913270 
347.000000	12.474605 
347.500000	13.083848 
348.000000	13.686468 
348.500000	14.233454 
349.000000	14.775414 
349.500000	15.209756 
350.000000	15.560423 
350.500000	15.741494 
351.000000	15.968650 
351.500000	16.215573 
352.000000	16.523671 
352.500000	16.916238 
353.000000	17.351716 
353.500000	17.805006 
354.000000	18.187736 
354.500000	18.464927 
355.000000	18.553646 
355.500000	18.577706 
356.000000	18.484139 
356.500000	18.318308 
357.000000	18.185365 
357.500000	18.139914 
358.000000	18.162163 
358.500000	18.289256 
359.000000	18.466042 
359.500000	18.662715 
360.000000	18.865991 
360.500000	18.971983 
361.000000	19.033537 
361.500000	19.014025 
362.000000	18.933238 
362.500000	18.739314 
363.000000	18.495737 
363.500000	18.293024 
364.000000	18.110526 
364.500000	17.991463 
365.000000	17.929562 
365.500000	18.042176 
366.000000	18.248212 
366.500000	18.559153 
367.000000	18.870447 
367.500000	19.106367 
368.000000	19.263794 
368.500000	19.316361 
369.000000	19.213420 
369.500000	18.967314 
370.000000	18.745731 
370.500000	18.473600 
371.000000	18.253421 
371.500000	18.119594 
372.000000	18.022984 
372.500000	17.897126 
373.000000	17.730330 
373.500000	17.494360 
374.000000	17.221025 
374.500000	16.998051 
375.000000	16.806902 
375.500000	16.682307 
376.000000	16.702645 
376.500000	16.868991 
377.000000	17.012872 
377.500000	17.175012 
378.000000	17.264963 
378.500000	17.337000 
379.000000	17.296216 
379.500000	17.178265 
380.000000	17.016736 
380.500000	16.857847 
381.000000	16.695002 
381.500000	16.412492 
382.000000	16.117743 
382.500000	15.724270 
383.000000	15.359047 
383.500000	14.963715 
384.000000	14.575490 
384.500000	14.268723 
385.000000	14.138567 
385.500000	14.167606 
386.000000	14.222531 
386.500000	14.374421 
387.000000	14.385662 
387.500000	14.332629 
388.000000	14.237887 
388.500000	14.010372 
389.000000	13.742707 
389.500000	13.488638 
390.000000	13.284653 
390.500000	13.151631 
391.000000	13.111522 
391.500000	13.015697 
392.000000	12.821603 
392.500000	12.594933 
393.000000	12.228635 
393.500000	11.725219 
394.000000	11.127601 
394.500000	10.480645 
395.000000	9.891160  
395.500000	9.436405  
396.000000	9.112772  
396.500000	8.961326  
397.000000	8.983236  
397.500000	9.095787  
398.000000	9.172277  
398.500000	9.244135  
399.000000	9.217280  
399.500000	9.064312  
400.000000	8.835404  
400.500000	8.554784  
401.000000	8.282865  
401.500000	8.078882  
402.000000	7.945552  
402.500000	7.843601  
403.000000	7.782169  
403.500000	7.730293  
404.000000	7.641622  
404.500000	7.577191  
405.000000	7.387792  
405.500000	7.127879  
406.000000	6.893806  
406.500000	6.668175  
407.000000	6.555797  
407.500000	6.536695  
408.000000	6.537530  
408.500000	6.562467  
409.000000	6.735675  
409.500000	6.858419  
410.000000	6.755013  
410.500000	6.533737  
411.000000	6.130669  
411.500000	5.672657  
412.000000	5.238745  
412.500000	4.787925  
413.000000	4.434839  
413.500000	4.319740  
414.000000	4.462351  
414.500000	4.669186  
415.000000	4.925606  
415.500000	5.172588  
416.000000	5.265918  
416.500000	5.298002  
417.000000	5.156057  
417.500000	4.909794  
418.000000	4.584493  
418.500000	4.413254  
419.000000	4.318962  
419.500000	4.306705  
420.000000	4.416665  
420.500000	4.494240  
421.000000	4.484565  
421.500000	4.290020  
422.000000	3.961778  
422.500000	3.433626  
423.000000	2.936163  
423.500000	2.586344  
424.000000	2.327327  
424.500000	2.239985  
425.000000	2.325804  
425.500000	2.512249  
426.000000	2.750619  
426.500000	2.964237  
427.000000	3.046377  
427.500000	3.002753  
428.000000	2.943487  
428.500000	2.822477  
429.000000	2.518396  
429.500000	2.209781  
430.000000	1.879882  
430.500000	1.576670  
431.000000	1.322237  
431.500000	1.109205  
432.000000	0.861258  
432.500000	0.755357  
433.000000	0.834613  
433.500000	0.936882  
434.000000	1.101849  
434.500000	1.289551  
435.000000	1.446068  
435.500000	1.588358  
436.000000	1.736068  
436.500000	1.688906  
437.000000	1.532942  
437.500000	1.404526  
438.000000	1.295211  
438.500000	1.216526  
439.000000	1.154432  
439.500000	1.090991  
440.000000	1.056632  
440.500000	1.078139  
441.000000	0.997293  
441.500000	0.799132  
442.000000	0.577059  
442.500000	0.420748  
443.000000	0.319232  
443.500000	0.202733  
444.000000	0.116488  
444.500000	0.018645  
445.000000	0.002704  
445.500000	-0.013100 
446.000000	-0.069044 
446.500000	-0.082550 
447.000000	-0.094762 
447.500000	-0.088769 
448.000000	-0.161866 
448.500000	-0.228666 
449.000000	-0.363800 
449.500000	-0.493047 
450.000000	-0.595866 
450.500000	-0.682572 
451.000000	-0.656607 
451.500000	-0.594345 
452.000000	-0.415149 
452.500000	-0.203138 
453.000000	0.038404  
453.500000	0.222570  
454.000000	0.369995  
454.500000	0.473828  
455.000000	0.493440  
455.500000	0.471690  
456.000000	0.375035  
456.500000	0.288869  
457.000000	0.243851  
457.500000	0.219697  
458.000000	0.172473  
458.500000	0.122783  
459.000000	0.082158  
459.500000	-0.026341 
460.000000	-0.133186 
460.500000	-0.232739 
461.000000	-0.307704 
461.500000	-0.289903 
462.000000	-0.240734 
462.500000	-0.169664 
463.000000	-0.037326 
463.500000	0.116076  
464.000000	0.179756  
464.500000	0.175143  
465.000000	0.132082  
465.500000	0.026345  
466.000000	-0.063942 
466.500000	-0.213646 
467.000000	-0.408713 
467.500000	-0.503363 
468.000000	-0.512336 
468.500000	-0.493760 
469.000000	-0.443873 
469.500000	-0.365310 
470.000000	-0.242080 
470.500000	-0.070840 
471.000000	0.059507  
471.500000	0.078463  
472.000000	0.066929  
472.500000	-0.013789 
473.000000	-0.106358 
473.500000	-0.168332 
474.000000	-0.267470 
474.500000	-0.333772 
475.000000	-0.344528 
475.500000	-0.315488 
476.000000	-0.302099 
476.500000	-0.267540 
477.000000	-0.247259 
477.500000	-0.279514 
478.000000	-0.289856 
478.500000	-0.309252 
479.000000	-0.332669 
479.500000	-0.321688 
480.000000	-0.330449 
480.500000	-0.355731 
481.000000	-0.418403 
481.500000	-0.503519 
482.000000	-0.641950 
482.500000	-0.754650 
483.000000	-0.835326 
483.500000	-0.946117 
484.000000	-0.978014 
484.500000	-0.967884 
485.000000	-0.917587 
485.500000	-0.833675 
486.000000	-0.760736 
486.500000	-0.691606 
487.000000	-0.593480 
487.500000	-0.476407 
488.000000	-0.441856 
488.500000	-0.479481 
489.000000	-0.549588 
489.500000	-0.681413 
490.000000	-0.786906 
490.500000	-0.947093 
491.000000	-1.117186 
491.500000	-1.191479 
492.000000	-1.130191 
492.500000	-1.005516 
493.000000	-0.917130 
493.500000	-0.783076 
494.000000	-0.709616 
494.500000	-0.606610 
495.000000	-0.524086 
495.500000	-0.472087 
496.000000	-0.429203 
496.500000	-0.330956 
497.000000	-0.223765 
497.500000	-0.242801 
498.000000	-0.311500 
498.500000	-0.476768 
499.000000	-0.675272 
499.500000	-0.888907 
500.000000	-1.076187 
500.500000	-1.196891 
501.000000	-1.222395 
501.500000	-1.155518 
502.000000	-1.063385 
502.500000	-1.029989 
503.000000	-1.055551 
503.500000	-1.084505 
504.000000	-1.137916 
504.500000	-1.221543 
505.000000	-1.255154 
505.500000	-1.238588 
506.000000	-1.129313 
506.500000	-0.923283 
507.000000	-0.744369 
507.500000	-0.657185 
508.000000	-0.531101 
508.500000	-0.360670 
509.000000	-0.273963 
509.500000	-0.193662 
510.000000	-0.166174 
510.500000	-0.194192 
511.000000	-0.172853 
511.500000	-0.187786 
512.000000	-0.354757 
512.500000	-0.536295 
513.000000	-0.676429 
513.500000	-0.828328 
514.000000	-0.938744 
514.500000	-0.978450 
515.000000	-1.006858 
515.500000	-0.892606 
516.000000	-0.689672 
516.500000	-0.524361 
517.000000	-0.375296 
517.500000	-0.327262 
518.000000	-0.388271 
518.500000	-0.539006 
519.000000	-0.704985 
519.500000	-0.950365 
520.000000	-1.142120 
520.500000	-1.273433 
521.000000	-1.365206 
521.500000	-1.322699 
522.000000	-1.304772 
522.500000	-1.286361 
523.000000	-1.303837 
523.500000	-1.321844 
524.000000	-1.321832 
524.500000	-1.285676 
525.000000	-1.191098 
525.500000	-1.118621 
526.000000	-0.967482 
526.500000	-0.835936 
527.000000	-0.766003 
527.500000	-0.692515 
528.000000	-0.661661 
528.500000	-0.638789 
529.000000	-0.651952 
529.500000	-0.610055 
530.000000	-0.590259 
530.500000	-0.561332 
531.000000	-0.520645 
531.500000	-0.555786 
532.000000	-0.567749 
532.500000	-0.583008 
533.000000	-0.617954 
533.500000	-0.679704 
534.000000	-0.705906 
534.500000	-0.675175 
535.000000	-0.666082 
535.500000	-0.645208 
536.000000	-0.700432 
536.500000	-0.778924 
537.000000	-0.884567 
537.500000	-0.982252 
538.000000	-1.063631 
538.500000	-1.139251 
539.000000	-1.083995 
539.500000	-1.010000 
540.000000	-0.937421 
540.500000	-0.885751 
541.000000	-0.834961 
541.500000	-0.851164 
542.000000	-0.893039 
542.500000	-0.918275 
543.000000	-1.021462 
543.500000	-1.094446 
544.000000	-1.150170 
544.500000	-1.182873 
545.000000	-1.183797 
545.500000	-1.102313 
546.000000	-1.019812 
546.500000	-0.896030 
547.000000	-0.710657 
547.500000	-0.610449 
548.000000	-0.615684 
548.500000	-0.690139 
549.000000	-0.800005 
549.500000	-0.954948 
550.000000	-1.111399 
550.500000	-1.234605 
551.000000	-1.290321 
551.500000	-1.251369 
552.000000	-1.149548 
552.500000	-1.105014 
553.000000	-1.166080 
553.500000	-1.260777 
554.000000	-1.354182 
554.500000	-1.467454 
555.000000	-1.560162 
555.500000	-1.585773 
556.000000	-1.530527 
556.500000	-1.309324 
557.000000	-1.038485 
557.500000	-0.870663 
558.000000	-0.767175 
558.500000	-0.687853 
559.000000	-0.690197 
559.500000	-0.739923 
560.000000	-0.851037 
560.500000	-1.001024 
561.000000	-1.030662 
561.500000	-0.934310 
562.000000	-0.877278 
562.500000	-0.862254 
563.000000	-0.854920 
563.500000	-0.925851 
564.000000	-1.050066 
564.500000	-1.234698 
565.000000	-1.442655 
565.500000	-1.542976 
566.000000	-1.500107 
566.500000	-1.398923 
567.000000	-1.221631 
567.500000	-0.988657 
568.000000	-0.766520 
568.500000	-0.602321 
569.000000	-0.512124 
569.500000	-0.546976 
570.000000	-0.608032 
570.500000	-0.671136 
571.000000	-0.715213 
571.500000	-0.741885 
572.000000	-0.731277 
572.500000	-0.713492 
573.000000	-0.710030 
573.500000	-0.739928 
574.000000	-0.863873 
574.500000	-1.017987 
575.000000	-1.209930 
575.500000	-1.328080 
576.000000	-1.397343 
576.500000	-1.401320 
577.000000	-1.340345 
577.500000	-1.183644 
578.000000	-1.028540 
578.500000	-0.911010 
579.000000	-0.862972 
579.500000	-0.902077 
580.000000	-0.935905 
580.500000	-0.987073 
581.000000	-1.078292 
581.500000	-1.168738 
582.000000	-1.174450 
582.500000	-1.164638 
583.000000	-1.103882 
583.500000	-1.074315 
584.000000	-1.091225 
584.500000	-1.103052 
585.000000	-1.058692 
585.500000	-1.076633 
586.000000	-1.122360 
586.500000	-1.139794 
587.000000	-1.106085 
587.500000	-0.992748 
588.000000	-0.882770 
588.500000	-0.781863 
589.000000	-0.681644 
589.500000	-0.536467 
590.000000	-0.456338 
590.500000	-0.458656 
591.000000	-0.556641 
591.500000	-0.682486 
592.000000	-0.810544 
592.500000	-0.956137 
593.000000	-1.105000 
593.500000	-1.247903 
594.000000	-1.342208 
594.500000	-1.423028 
595.000000	-1.462029 
595.500000	-1.472528 
596.000000	-1.432310 
596.500000	-1.373633 
597.000000	-1.337519 
597.500000	-1.312191 
598.000000	-1.310500 
598.500000	-1.279060 
599.000000	-1.305014 
599.500000	-1.361139 
600.000000	-1.402762 
600.500000	-1.406044 
601.000000	-1.378194 
601.500000	-1.321290 
602.000000	-1.242945 
602.500000	-1.175397 
603.000000	-1.043207 
603.500000	-0.927984 
604.000000	-0.902487 
604.500000	-0.902748 
605.000000	-0.938396 
605.500000	-0.976622 
606.000000	-1.005782 
606.500000	-1.050550 
607.000000	-1.124418 
607.500000	-1.161900 
608.000000	-1.186222 
608.500000	-1.276197 
609.000000	-1.356678 
609.500000	-1.431815 
610.000000	-1.483009 
610.500000	-1.507981 
611.000000	-1.493962 
611.500000	-1.421820 
612.000000	-1.289005 
612.500000	-1.136911 
613.000000	-1.020459 
613.500000	-0.888562 
614.000000	-0.753706 
614.500000	-0.652969 
615.000000	-0.586651 
615.500000	-0.569573 
616.000000	-0.578651 
616.500000	-0.581238 
617.000000	-0.631527 
617.500000	-0.727550 
618.000000	-0.822144 
618.500000	-0.892895 
619.000000	-0.935870 
619.500000	-0.912762 
620.000000	-0.866419 
620.500000	-0.833042 
621.000000	-0.805072 
621.500000	-0.852128 
622.000000	-0.930066 
622.500000	-0.987271 
623.000000	-1.041956 
623.500000	-1.084809 
624.000000	-1.044836 
624.500000	-0.925319 
625.000000	-0.780650 
625.500000	-0.584697 
626.000000	-0.448192 
626.500000	-0.367165 
627.000000	-0.295644 
627.500000	-0.319356 
628.000000	-0.411517 
628.500000	-0.522445 
629.000000	-0.607121 
629.500000	-0.706562 
630.000000	-0.757577 
630.500000	-0.804917 
631.000000	-0.884350 
631.500000	-0.896194 
632.000000	-0.905517 
632.500000	-0.940267 
633.000000	-0.960026 
633.500000	-0.928076 
634.000000	-0.903778 
634.500000	-0.872903 
635.000000	-0.846798 
635.500000	-0.933663 
636.000000	-0.992784 
636.500000	-1.043874 
637.000000	-1.149480 
637.500000	-1.288152 
638.000000	-1.378227 
638.500000	-1.456649 
639.000000	-1.495377 
639.500000	-1.469975 
640.000000	-1.498103 
640.500000	-1.468025 
641.000000	-1.368983 
641.500000	-1.307881 
642.000000	-1.294793 
642.500000	-1.255070 
643.000000	-1.234091 
643.500000	-1.193088 
644.000000	-1.135096 
644.500000	-1.105823 
645.000000	-1.045942 
645.500000	-0.905610 
646.000000	-0.752380 
646.500000	-0.660931 
647.000000	-0.601839 
647.500000	-0.612235 
648.000000	-0.693638 
648.500000	-0.863040 
649.000000	-1.072946 
649.500000	-1.282509 
650.000000	-1.395906 
650.500000	-1.408964 
651.000000	-1.354212 
651.500000	-1.253704 
652.000000	-1.126804 
652.500000	-1.013179 
653.000000	-0.996326 
653.500000	-1.025712 
654.000000	-1.120002 
654.500000	-1.236776 
655.000000	-1.331528 
655.500000	-1.370904 
656.000000	-1.339019 
656.500000	-1.246532 
657.000000	-1.137509 
657.500000	-1.091225 
658.000000	-1.062189 
658.500000	-1.070448 
659.000000	-1.112934 
659.500000	-1.210719 
660.000000	-1.280610 
660.500000	-1.295302 
661.000000	-1.262452 
661.500000	-1.195836 
662.000000	-1.130921 
662.500000	-1.051387 
663.000000	-1.011957 
663.500000	-1.006861 
664.000000	-1.038889 
664.500000	-1.047177 
665.000000	-1.059144 
665.500000	-1.114027 
666.000000	-1.213672 
666.500000	-1.310465 
667.000000	-1.352084 
667.500000	-1.413400 
668.000000	-1.480199 
668.500000	-1.477430 
669.000000	-1.367939 
669.500000	-1.190926 
670.000000	-0.999232 
670.500000	-0.841994 
671.000000	-0.713543 
671.500000	-0.562519 
672.000000	-0.478202 
672.500000	-0.456622 
673.000000	-0.455064 
673.500000	-0.474712 
674.000000	-0.502972 
674.500000	-0.501226 
675.000000	-0.487873 
675.500000	-0.497051 
676.000000	-0.469602 
676.500000	-0.410336 
677.000000	-0.300519 
677.500000	-0.183413 
678.000000	-0.100873 
678.500000	-0.102284 
679.000000	-0.158789 
679.500000	-0.244223 
680.000000	-0.371434 
680.500000	-0.492913 
681.000000	-0.571760 
681.500000	-0.527406 
682.000000	-0.415912 
682.500000	-0.267245 
683.000000	-0.092336 
683.500000	0.080194  
684.000000	0.270664  
684.500000	0.465922  
685.000000	0.645948  
685.500000	0.801133  
686.000000	0.968528  
686.500000	1.129478  
687.000000	1.247747  
687.500000	1.365695  
688.000000	1.448715  
688.500000	1.517293  
689.000000	1.577221  
689.500000	1.672290  
690.000000	1.774033  
690.500000	1.840126  
691.000000	1.951544  
691.500000	2.067227  
692.000000	2.187501  
692.500000	2.242874  
693.000000	2.252230  
693.500000	2.287558  
694.000000	2.395612  
694.500000	2.526133  
695.000000	2.548212  
695.500000	2.615273  
696.000000	2.738832  
696.500000	2.898739  
697.000000	3.007610  
697.500000	3.074956  
698.000000	3.187971  
698.500000	3.382082  
699.000000	3.638703  
699.500000	3.745245  
700.000000	3.856632  
700.500000	3.968088  
701.000000	4.121918  
701.500000	4.290371  
702.000000	4.437810  
702.500000	4.575747  
703.000000	4.722161  
703.500000	4.963260  
704.000000	5.117066  
704.500000	5.223300  
705.000000	5.283396  
705.500000	5.262333  
706.000000	5.312918  
706.500000	5.458702  
707.000000	5.599097  
707.500000	5.712058  
708.000000	5.862733  
708.500000	5.980961  
709.000000	6.003998  
709.500000	5.966569  
710.000000	5.789255  
710.500000	5.594167  
711.000000	5.538269  
711.500000	5.536021  
712.000000	5.631501  
712.500000	5.726923  
713.000000	5.884188  
713.500000	5.964110  
714.000000	6.058454  
714.500000	6.105922  
715.000000	6.025880  
715.500000	5.995945  
716.000000	5.929771  
716.500000	5.994397  
717.000000	6.081138  
717.500000	6.278284  
718.000000	6.460473  
718.500000	6.600626  
719.000000	6.735249  
719.500000	6.696246  
720.000000	6.665336  
720.500000	6.495667  
721.000000	6.317352  
721.500000	6.186225  
722.000000	6.168907  
722.500000	6.248917  
723.000000	6.357742  
723.500000	6.570887  
724.000000	6.786562  
724.500000	7.019939  
725.000000	7.142504  
725.500000	7.084436  
726.000000	6.934904  
726.500000	6.757440  
727.000000	6.577974  
727.500000	6.297396  
728.000000	6.035984  
728.500000	5.857718  
729.000000	5.730088  
729.500000	5.701380  
730.000000	5.680965  
730.500000	5.685720  
731.000000	5.732396  
731.500000	5.849425  
732.000000	5.915795  
732.500000	6.012170  
733.000000	6.115952  
733.500000	6.133153  
734.000000	6.148089  
734.500000	6.105310  
735.000000	5.997922  
735.500000	5.801682  
736.000000	5.624739  
736.500000	5.445550  
737.000000	5.362502  
737.500000	5.275141  
738.000000	5.192962  
738.500000	5.202682  
739.000000	5.225227  
739.500000	5.299914  
740.000000	5.255827  
740.500000	5.151549  
741.000000	4.968572  
741.500000	4.823807  
742.000000	4.631061  
742.500000	4.374549  
743.000000	4.244249  
743.500000	4.217242  
744.000000	4.361262  
744.500000	4.525036  
745.000000	4.814766  
745.500000	5.152889  
746.000000	5.492883  
746.500000	5.739989  
747.000000	5.787158  
747.500000	5.759466  
748.000000	5.668388  
748.500000	5.536857  
749.000000	5.328822  
749.500000	5.149040  
750.000000	4.988190  
750.500000	4.888363  
751.000000	4.861021  
751.500000	4.835813  
752.000000	4.871574  
752.500000	4.946468  
753.000000	4.964006  
753.500000	4.882347  
754.000000	4.780481  
754.500000	4.562014  
755.000000	4.296609  
755.500000	4.003358  
756.000000	3.695234  
756.500000	3.492758  
757.000000	3.444687  
757.500000	3.455707  
758.000000	3.550616  
758.500000	3.745792  
759.000000	3.822060  
759.500000	3.826687  
760.000000	3.754982  
760.500000	3.567795  
761.000000	3.311890  
761.500000	3.111811  
762.000000	2.929018  
762.500000	2.786309  
763.000000	2.750000  
763.500000	2.693110  
764.000000	2.624627  
764.500000	2.574848  
765.000000	2.514731  
765.500000	2.376228  
766.000000	2.319377  
766.500000	2.322160  
767.000000	2.382005  
767.500000	2.447769  
768.000000	2.510875  
768.500000	2.557617  
769.000000	2.574581  
769.500000	2.557656  
770.000000	2.432391  
770.500000	2.321562  
771.000000	2.300020  
771.500000	2.273840  
772.000000	2.197888  
772.500000	2.121931  
773.000000	2.056134  
773.500000	2.000515  
774.000000	1.897325  
774.500000	1.791135  
775.000000	1.701532  
775.500000	1.691544  
776.000000	1.689479  
776.500000	1.691130  
777.000000	1.667612  
777.500000	1.629006  
778.000000	1.614963  
778.500000	1.533555  
779.000000	1.485799  
779.500000	1.485928  
780.000000	1.493165  
780.500000	1.450513  
781.000000	1.425918  
781.500000	1.407686  
782.000000	1.364698  
782.500000	1.332145  
783.000000	1.253669  
783.500000	1.189900  
784.000000	1.176571  
784.500000	1.172138  
785.000000	1.138909  
785.500000	1.088567  
786.000000	1.022146  
786.500000	0.943278  
787.000000	0.818550  
787.500000	0.678514  
788.000000	0.540269  
788.500000	0.394937  
789.000000	0.322547  
789.500000	0.282826  
790.000000	0.307976  
790.500000	0.427004  
791.000000	0.651489  
791.500000	0.858032  
792.000000	1.100201  
792.500000	1.303198  
793.000000	1.412752  
793.500000	1.474369  
794.000000	1.420889  
794.500000	1.300305  
795.000000	1.130864  
795.500000	0.933814  
796.000000	0.670207  
796.500000	0.490561  
797.000000	0.347585  
797.500000	0.243786  
798.000000	0.172612  
798.500000	0.139953  
799.000000	0.106583  
799.500000	0.086035  
800.000000	0.030886  
800.500000	-0.094196 
801.000000	-0.154368 
801.500000	-0.182698 
802.000000	-0.189194 
802.500000	-0.180101 
803.000000	-0.096504 
803.500000	0.030182  
804.000000	0.163062  
804.500000	0.223521  
805.000000	0.195213  
805.500000	0.125822  
806.000000	0.059432  
806.500000	-0.034969 
807.000000	-0.112935 
807.500000	-0.134266 
808.000000	-0.093153 
808.500000	-0.007260 
809.000000	0.095086  
809.500000	0.162824  
810.000000	0.190875  
810.500000	0.205987  
811.000000	0.160787  
811.500000	0.085320  
812.000000	-0.072227 
812.500000	-0.221277 
813.000000	-0.375528 
813.500000	-0.475918 
814.000000	-0.548696 
814.500000	-0.590134 
815.000000	-0.613334 
815.500000	-0.617190 
816.000000	-0.549989 
816.500000	-0.482363 
817.000000	-0.404440 
817.500000	-0.354672 
818.000000	-0.311611 
818.500000	-0.310350 
819.000000	-0.304893 
819.500000	-0.330826 
820.000000	-0.399276 
820.500000	-0.448994 
821.000000	-0.463514 
821.500000	-0.411257 
822.000000	-0.359771 
822.500000	-0.322968 
823.000000	-0.314852 
823.500000	-0.302440 
824.000000	-0.302073 
824.500000	-0.330679 
825.000000	-0.412358 
825.500000	-0.478083 
826.000000	-0.523819 
826.500000	-0.539096 
827.000000	-0.579170 
827.500000	-0.661617 
828.000000	-0.783607 
828.500000	-0.926855 
829.000000	-0.990452 
829.500000	-1.066581 
830.000000	-1.075113 
830.500000	-1.035498 
831.000000	-0.922973 
831.500000	-0.765825 
832.000000	-0.630705 
832.500000	-0.567087 
833.000000	-0.607762 
833.500000	-0.649840 
834.000000	-0.762676 
834.500000	-0.836791 
835.000000	-0.894347 
835.500000	-0.902148 
836.000000	-0.790688 
836.500000	-0.631155 
837.000000	-0.502654 
837.500000	-0.408812 
838.000000	-0.355302 
838.500000	-0.435657 
839.000000	-0.561677 
839.500000	-0.662390 
840.000000	-0.801905 
840.500000	-0.874776 
841.000000	-0.892648 
841.500000	-0.892435 
842.000000	-0.853911 
842.500000	-0.833687 
843.000000	-0.893718 
843.500000	-0.983499 
844.000000	-1.044810 
844.500000	-1.112543 
845.000000	-1.134377 
845.500000	-1.128286 
846.000000	-1.087458 
846.500000	-0.991167 
847.000000	-0.907546 
847.500000	-0.865246 
848.000000	-0.838436 
848.500000	-0.786928 
849.000000	-0.690474 
849.500000	-0.586877 
850.000000	-0.541059 
850.500000	-0.517433 
851.000000	-0.475378 
851.500000	-0.461822 
852.000000	-0.505570 
852.500000	-0.544618 
853.000000	-0.618159 
853.500000	-0.663259 
854.000000	-0.677691 
854.500000	-0.709888 
855.000000	-0.808084 
855.500000	-0.898137 
856.000000	-0.991406 
856.500000	-1.079877 
857.000000	-1.117599 
857.500000	-1.158273 
858.000000	-1.139397 
858.500000	-1.040807 
859.000000	-0.868936 
859.500000	-0.755686 
860.000000	-0.698095 
860.500000	-0.716725 
861.000000	-0.790223 
861.500000	-0.878473 
862.000000	-1.051561 
862.500000	-1.244590 
863.000000	-1.379533 
863.500000	-1.395035 
864.000000	-1.359606 
864.500000	-1.301929 
865.000000	-1.236493 
865.500000	-1.143539 
866.000000	-1.035570 
866.500000	-0.991676 
867.000000	-1.004740 
867.500000	-0.986875 
868.000000	-0.904216 
868.500000	-0.777152 
869.000000	-0.653335 
869.500000	-0.588383 
870.000000	-0.575116 
870.500000	-0.607607 
871.000000	-0.695074 
871.500000	-0.867250 
872.000000	-1.122968 
872.500000	-1.401197 
873.000000	-1.661281 
873.500000	-1.859402 
874.000000	-1.994417 
874.500000	-2.040984 
875.000000	-2.067374 
875.500000	-2.025826 
876.000000	-1.902051 
876.500000	-1.751877 
877.000000	-1.613598 
877.500000	-1.483553 
878.000000	-1.379252 
878.500000	-1.303287 
879.000000	-1.177706 
879.500000	-1.100166 
880.000000	-1.094704 
880.500000	-1.090565 
881.000000	-1.069053 
881.500000	-1.038091 
882.000000	-1.002565 
882.500000	-1.037763 
883.000000	-1.095292 
883.500000	-1.053778 
884.000000	-0.980609 
884.500000	-0.967118 
885.000000	-1.028638 
885.500000	-1.070542 
886.000000	-1.091468 
886.500000	-1.108114 
887.000000	-1.164033 
887.500000	-1.238779 
888.000000	-1.261460 
888.500000	-1.215085 
889.000000	-1.183905 
889.500000	-1.159742 
890.000000	-1.128376 
890.500000	-1.054808 
891.000000	-0.983382 
891.500000	-0.925985 
892.000000	-0.916189 
892.500000	-0.968354 
893.000000	-1.037378 
893.500000	-1.135709 
894.000000	-1.253795 
894.500000	-1.353082 

