PE FL                   SPECTRUM    ASCII       PEDS        1.60        
  -1
PM6047~1
23/10/14
20:50:29.00
23/10/14
20:50:29.00


894.500000
1









LS55
316.00
5.00
5.00
SCAN
1
20
100
500
0
100
0
1
0
1
7
ON
900 316 
1 0 0
#HDR
-1
-1
#GR
NM

0.00002384185791015625
0.0
330.000000
0.500000
1130
8
58.747612
-1.288838
#DATA
330.000000	2.417000  
330.500000	2.946145  
331.000000	3.548621  
331.500000	4.130501  
332.000000	4.703265  
332.500000	5.258496  
333.000000	5.893593  
333.500000	6.676430  
334.000000	7.611167  
334.500000	8.567690  
335.000000	9.622820  
335.500000	10.716860 
336.000000	11.708189 
336.500000	12.592860 
337.000000	13.371467 
337.500000	14.068957 
338.000000	14.707514 
338.500000	15.374593 
339.000000	16.016949 
339.500000	16.874077 
340.000000	17.843851 
340.500000	18.714240 
341.000000	19.566530 
341.500000	20.353864 
342.000000	21.031973 
342.500000	21.771775 
343.000000	22.643654 
343.500000	23.528443 
344.000000	24.616088 
344.500000	26.029140 
345.000000	27.563092 
345.500000	29.212143 
346.000000	30.829209 
346.500000	32.287222 
347.000000	33.763619 
347.500000	35.317935 
348.000000	36.728645 
348.500000	38.059537 
349.000000	39.484006 
349.500000	40.906149 
350.000000	42.407120 
350.500000	43.880461 
351.000000	45.157455 
351.500000	46.287818 
352.000000	47.391911 
352.500000	48.320418 
353.000000	49.097262 
353.500000	49.816190 
354.000000	50.447596 
354.500000	51.087209 
355.000000	51.824277 
355.500000	52.677959 
356.000000	53.640939 
356.500000	54.635258 
357.000000	55.500082 
357.500000	56.291344 
358.000000	56.925662 
358.500000	57.313761 
359.000000	57.460122 
359.500000	57.447564 
360.000000	57.427834 
360.500000	57.301429 
361.000000	57.173009 
361.500000	57.091579 
362.000000	57.157374 
362.500000	57.335309 
363.000000	57.674266 
363.500000	58.118625 
364.000000	58.481921 
364.500000	58.747612 
365.000000	58.657794 
365.500000	58.298462 
366.000000	57.870593 
366.500000	57.400556 
367.000000	56.873039 
367.500000	56.505906 
368.000000	56.421298 
368.500000	56.312254 
369.000000	56.208409 
369.500000	55.797230 
370.000000	54.956944 
370.500000	53.904993 
371.000000	52.781701 
371.500000	51.569850 
372.000000	50.524780 
372.500000	49.985624 
373.000000	49.666733 
373.500000	49.520121 
374.000000	49.415415 
374.500000	49.096532 
375.000000	48.602455 
375.500000	47.994320 
376.000000	47.182208 
376.500000	46.196040 
377.000000	45.343051 
377.500000	44.473485 
378.000000	43.579466 
378.500000	42.841458 
379.000000	42.212291 
379.500000	41.646096 
380.000000	41.248650 
380.500000	40.927933 
381.000000	40.546534 
381.500000	40.051603 
382.000000	39.433035 
382.500000	38.660050 
383.000000	37.755273 
383.500000	36.799487 
384.000000	35.775842 
384.500000	34.899199 
385.000000	34.224056 
385.500000	33.700648 
386.000000	33.217439 
386.500000	32.725592 
387.000000	32.228337 
387.500000	31.705096 
388.000000	31.160157 
388.500000	30.467546 
389.000000	29.799138 
389.500000	29.217179 
390.000000	28.649900 
390.500000	28.060191 
391.000000	27.422690 
391.500000	26.752799 
392.000000	26.073690 
392.500000	25.550575 
393.000000	25.129677 
393.500000	24.894548 
394.000000	24.841406 
394.500000	24.794129 
395.000000	24.737569 
395.500000	24.679478 
396.000000	24.435380 
396.500000	23.999275 
397.000000	23.454156 
397.500000	22.893359 
398.000000	22.377793 
398.500000	21.970824 
399.000000	21.640097 
399.500000	21.322472 
400.000000	21.053194 
400.500000	20.819700 
401.000000	20.542974 
401.500000	20.283284 
402.000000	20.069890 
402.500000	19.921661 
403.000000	19.887997 
403.500000	19.959739 
404.000000	19.993810 
404.500000	19.914024 
405.000000	19.780221 
405.500000	19.602824 
406.000000	19.414957 
406.500000	19.204684 
407.000000	19.036375 
407.500000	18.930312 
408.000000	18.944608 
408.500000	18.999479 
409.000000	19.021341 
409.500000	18.984556 
410.000000	18.851363 
410.500000	18.604243 
411.000000	18.259037 
411.500000	17.923154 
412.000000	17.558082 
412.500000	17.217517 
413.000000	16.883388 
413.500000	16.590291 
414.000000	16.234810 
414.500000	15.851379 
415.000000	15.344323 
415.500000	14.784506 
416.000000	14.394453 
416.500000	14.127384 
417.000000	13.853780 
417.500000	13.699599 
418.000000	13.678953 
418.500000	13.604104 
419.000000	13.565282 
419.500000	13.382112 
420.000000	13.023573 
420.500000	12.645356 
421.000000	12.395981 
421.500000	11.987538 
422.000000	11.677832 
422.500000	11.474200 
423.000000	11.158705 
423.500000	10.946488 
424.000000	10.700575 
424.500000	10.399354 
425.000000	10.060211 
425.500000	9.964418  
426.000000	9.752394  
426.500000	9.635053  
427.000000	9.668868  
427.500000	9.704390  
428.000000	9.739110  
428.500000	9.639336  
429.000000	9.463030  
429.500000	9.094791  
430.000000	8.764348  
430.500000	8.265438  
431.000000	7.714011  
431.500000	7.235486  
432.000000	6.969810  
432.500000	6.860995  
433.000000	6.803709  
433.500000	6.854714  
434.000000	6.862676  
434.500000	6.882286  
435.000000	6.860029  
435.500000	6.703667  
436.000000	6.420867  
436.500000	6.152996  
437.000000	5.935759  
437.500000	5.790247  
438.000000	5.789250  
438.500000	5.828050  
439.000000	5.897447  
439.500000	6.012487  
440.000000	6.106710  
440.500000	6.077409  
441.000000	5.839771  
441.500000	5.446112  
442.000000	4.957106  
442.500000	4.489620  
443.000000	3.999275  
443.500000	3.537790  
444.000000	3.250572  
444.500000	3.178160  
445.000000	3.240229  
445.500000	3.346968  
446.000000	3.458936  
446.500000	3.562313  
447.000000	3.655304  
447.500000	3.701303  
448.000000	3.637416  
448.500000	3.459917  
449.000000	3.242742  
449.500000	2.963849  
450.000000	2.634949  
450.500000	2.262262  
451.000000	1.961882  
451.500000	1.729509  
452.000000	1.678014  
452.500000	1.738336  
453.000000	1.899000  
453.500000	2.071765  
454.000000	2.288405  
454.500000	2.477543  
455.000000	2.566920  
455.500000	2.635832  
456.000000	2.627963  
456.500000	2.637816  
457.000000	2.601862  
457.500000	2.643503  
458.000000	2.540237  
458.500000	2.394297  
459.000000	2.263958  
459.500000	2.039385  
460.000000	1.838947  
460.500000	1.704850  
461.000000	1.734412  
461.500000	1.748177  
462.000000	1.896293  
462.500000	1.938754  
463.000000	1.891946  
463.500000	1.831477  
464.000000	1.703220  
464.500000	1.512048  
465.000000	1.391589  
465.500000	1.470726  
466.000000	1.540934  
466.500000	1.745148  
467.000000	1.959225  
467.500000	2.166435  
468.000000	2.280958  
468.500000	2.307901  
469.000000	2.135903  
469.500000	1.891814  
470.000000	1.779127  
470.500000	1.660642  
471.000000	1.611962  
471.500000	1.614785  
472.000000	1.684493  
472.500000	1.726405  
473.000000	1.768767  
473.500000	1.676985  
474.000000	1.508573  
474.500000	1.342955  
475.000000	1.092249  
475.500000	0.826671  
476.000000	0.641351  
476.500000	0.541692  
477.000000	0.562366  
477.500000	0.685400  
478.000000	0.822006  
478.500000	0.925677  
479.000000	1.004327  
479.500000	1.015396  
480.000000	0.944157  
480.500000	0.834864  
481.000000	0.665578  
481.500000	0.529990  
482.000000	0.428037  
482.500000	0.345515  
483.000000	0.320642  
483.500000	0.345697  
484.000000	0.420267  
484.500000	0.492774  
485.000000	0.571620  
485.500000	0.688237  
486.000000	0.795825  
486.500000	0.938104  
487.000000	1.071224  
487.500000	1.162161  
488.000000	1.123823  
488.500000	1.010445  
489.000000	0.801564  
489.500000	0.582819  
490.000000	0.403834  
490.500000	0.242512  
491.000000	0.090154  
491.500000	-0.005693 
492.000000	0.062433  
492.500000	0.186583  
493.000000	0.354085  
493.500000	0.467587  
494.000000	0.581180  
494.500000	0.637925  
495.000000	0.682472  
495.500000	0.690367  
496.000000	0.667945  
496.500000	0.712154  
497.000000	0.763779  
497.500000	0.812653  
498.000000	0.819778  
498.500000	0.793637  
499.000000	0.608147  
499.500000	0.395063  
500.000000	0.175944  
500.500000	-0.063608 
501.000000	-0.245657 
501.500000	-0.383040 
502.000000	-0.442016 
502.500000	-0.378316 
503.000000	-0.200592 
503.500000	-0.075255 
504.000000	0.032550  
504.500000	0.190129  
505.000000	0.389484  
505.500000	0.577018  
506.000000	0.710202  
506.500000	0.827545  
507.000000	0.862824  
507.500000	0.877661  
508.000000	0.789479  
508.500000	0.586182  
509.000000	0.361213  
509.500000	0.164874  
510.000000	-0.017774 
510.500000	-0.200203 
511.000000	-0.276123 
511.500000	-0.344106 
512.000000	-0.357261 
512.500000	-0.293819 
513.000000	-0.238263 
513.500000	-0.148010 
514.000000	-0.029945 
514.500000	0.053181  
515.000000	0.049875  
515.500000	0.096719  
516.000000	0.058485  
516.500000	-0.076755 
517.000000	-0.219105 
517.500000	-0.374322 
518.000000	-0.512415 
518.500000	-0.606071 
519.000000	-0.605948 
519.500000	-0.561136 
520.000000	-0.440548 
520.500000	-0.304576 
521.000000	-0.155325 
521.500000	0.013087  
522.000000	0.136122  
522.500000	0.194860  
523.000000	0.192178  
523.500000	0.178228  
524.000000	0.159237  
524.500000	0.140129  
525.000000	0.070019  
525.500000	0.005860  
526.000000	-0.004770 
526.500000	-0.018179 
527.000000	-0.080336 
527.500000	-0.182764 
528.000000	-0.266648 
528.500000	-0.314509 
529.000000	-0.337521 
529.500000	-0.381027 
530.000000	-0.437272 
530.500000	-0.412392 
531.000000	-0.347644 
531.500000	-0.251928 
532.000000	-0.122752 
532.500000	0.002122  
533.000000	0.080737  
533.500000	0.171563  
534.000000	0.249829  
534.500000	0.265617  
535.000000	0.206959  
535.500000	0.110695  
536.000000	-0.012149 
536.500000	-0.114551 
537.000000	-0.230508 
537.500000	-0.400393 
538.000000	-0.509914 
538.500000	-0.486019 
539.000000	-0.365224 
539.500000	-0.229722 
540.000000	-0.140739 
540.500000	-0.066476 
541.000000	0.106989  
541.500000	0.255702  
542.000000	0.231490  
542.500000	0.063662  
543.000000	-0.058546 
543.500000	-0.084653 
544.000000	-0.067086 
544.500000	-0.111692 
545.000000	-0.202733 
545.500000	-0.185366 
546.000000	-0.114914 
546.500000	-0.102572 
547.000000	-0.244629 
547.500000	-0.388519 
548.000000	-0.461493 
548.500000	-0.436294 
549.000000	-0.439039 
549.500000	-0.474464 
550.000000	-0.368987 
550.500000	-0.204161 
551.000000	-0.020642 
551.500000	0.086103  
552.000000	0.123095  
552.500000	0.153932  
553.000000	0.114439  
553.500000	-0.055451 
554.000000	-0.277792 
554.500000	-0.449162 
555.000000	-0.622073 
555.500000	-0.738931 
556.000000	-0.780040 
556.500000	-0.720902 
557.000000	-0.532803 
557.500000	-0.319038 
558.000000	-0.186037 
558.500000	-0.108583 
559.000000	-0.065922 
559.500000	-0.096986 
560.000000	-0.180745 
560.500000	-0.341893 
561.000000	-0.487090 
561.500000	-0.543889 
562.000000	-0.523013 
562.500000	-0.507133 
563.000000	-0.466847 
563.500000	-0.431047 
564.000000	-0.383675 
564.500000	-0.302485 
565.000000	-0.321672 
565.500000	-0.389236 
566.000000	-0.477820 
566.500000	-0.528711 
567.000000	-0.554342 
567.500000	-0.588895 
568.000000	-0.623825 
568.500000	-0.601716 
569.000000	-0.460466 
569.500000	-0.338185 
570.000000	-0.277371 
570.500000	-0.275202 
571.000000	-0.293767 
571.500000	-0.328414 
572.000000	-0.373116 
572.500000	-0.390659 
573.000000	-0.358610 
573.500000	-0.253573 
574.000000	-0.195435 
574.500000	-0.229127 
575.000000	-0.336902 
575.500000	-0.520133 
576.000000	-0.763302 
576.500000	-0.986100 
577.000000	-1.109843 
577.500000	-1.147738 
578.000000	-1.044667 
578.500000	-0.887846 
579.000000	-0.771220 
579.500000	-0.683633 
580.000000	-0.662744 
580.500000	-0.721082 
581.000000	-0.779596 
581.500000	-0.827925 
582.000000	-0.865859 
582.500000	-0.778562 
583.000000	-0.605635 
583.500000	-0.426841 
584.000000	-0.233595 
584.500000	-0.087706 
585.000000	-0.013736 
585.500000	0.041275  
586.000000	0.056871  
586.500000	-0.021711 
587.000000	-0.082809 
587.500000	-0.135009 
588.000000	-0.188525 
588.500000	-0.202490 
589.000000	-0.196595 
589.500000	-0.230592 
590.000000	-0.302279 
590.500000	-0.417530 
591.000000	-0.587695 
591.500000	-0.717369 
592.000000	-0.839079 
592.500000	-0.882275 
593.000000	-0.842831 
593.500000	-0.677056 
594.000000	-0.479154 
594.500000	-0.331737 
595.000000	-0.239857 
595.500000	-0.232464 
596.000000	-0.279972 
596.500000	-0.426283 
597.000000	-0.584528 
597.500000	-0.732914 
598.000000	-0.784019 
598.500000	-0.771036 
599.000000	-0.719101 
599.500000	-0.621330 
600.000000	-0.520904 
600.500000	-0.455861 
601.000000	-0.459305 
601.500000	-0.497759 
602.000000	-0.600550 
602.500000	-0.694734 
603.000000	-0.750078 
603.500000	-0.776913 
604.000000	-0.735825 
604.500000	-0.642752 
605.000000	-0.533228 
605.500000	-0.409154 
606.000000	-0.297148 
606.500000	-0.211869 
607.000000	-0.122908 
607.500000	-0.061907 
608.000000	-0.045953 
608.500000	-0.045516 
609.000000	-0.028722 
609.500000	-0.020058 
610.000000	-0.060938 
610.500000	-0.175722 
611.000000	-0.298665 
611.500000	-0.379330 
612.000000	-0.460344 
612.500000	-0.559525 
613.000000	-0.667026 
613.500000	-0.709622 
614.000000	-0.670910 
614.500000	-0.602196 
615.000000	-0.591696 
615.500000	-0.567083 
616.000000	-0.458063 
616.500000	-0.304943 
617.000000	-0.210772 
617.500000	-0.194272 
618.000000	-0.188791 
618.500000	-0.214792 
619.000000	-0.220673 
619.500000	-0.254275 
620.000000	-0.213571 
620.500000	-0.093362 
621.000000	0.193043  
621.500000	0.641757  
622.000000	1.199821  
622.500000	1.899076  
623.000000	2.628367  
623.500000	3.396344  
624.000000	4.150451  
624.500000	4.913198  
625.000000	5.555719  
625.500000	6.077120  
626.000000	6.526729  
626.500000	6.858087  
627.000000	7.049056  
627.500000	7.128936  
628.000000	7.152826  
628.500000	7.088101  
629.000000	7.048442  
629.500000	6.971116  
630.000000	6.841394  
630.500000	6.620387  
631.000000	6.288489  
631.500000	5.741764  
632.000000	5.057524  
632.500000	4.289921  
633.000000	3.447325  
633.500000	2.587512  
634.000000	1.757415  
634.500000	1.087888  
635.000000	0.535057  
635.500000	0.170437  
636.000000	-0.122420 
636.500000	-0.307227 
637.000000	-0.365777 
637.500000	-0.360534 
638.000000	-0.364885 
638.500000	-0.392042 
639.000000	-0.378667 
639.500000	-0.425441 
640.000000	-0.451782 
640.500000	-0.535101 
641.000000	-0.627838 
641.500000	-0.717297 
642.000000	-0.779233 
642.500000	-0.852641 
643.000000	-0.907979 
643.500000	-0.931333 
644.000000	-0.923588 
644.500000	-0.826507 
645.000000	-0.725419 
645.500000	-0.551245 
646.000000	-0.318053 
646.500000	-0.049501 
647.000000	0.181783  
647.500000	0.357336  
648.000000	0.434470  
648.500000	0.469879  
649.000000	0.487074  
649.500000	0.408252  
650.000000	0.299643  
650.500000	0.164211  
651.000000	0.016645  
651.500000	-0.136198 
652.000000	-0.260349 
652.500000	-0.412589 
653.000000	-0.492649 
653.500000	-0.502386 
654.000000	-0.487770 
654.500000	-0.440632 
655.000000	-0.342799 
655.500000	-0.232443 
656.000000	-0.163272 
656.500000	-0.113987 
657.000000	-0.072896 
657.500000	-0.021768 
658.000000	0.063548  
658.500000	0.156075  
659.000000	0.251906  
659.500000	0.364681  
660.000000	0.468735  
660.500000	0.487745  
661.000000	0.413990  
661.500000	0.327713  
662.000000	0.252005  
662.500000	0.222645  
663.000000	0.207690  
663.500000	0.251992  
664.000000	0.354851  
664.500000	0.491678  
665.000000	0.627891  
665.500000	0.725317  
666.000000	0.820200  
666.500000	0.920379  
667.000000	1.065143  
667.500000	1.212420  
668.000000	1.446947  
668.500000	1.694839  
669.000000	1.954133  
669.500000	2.204076  
670.000000	2.414255  
670.500000	2.561658  
671.000000	2.674184  
671.500000	2.804276  
672.000000	2.928730  
672.500000	3.170288  
673.000000	3.367702  
673.500000	3.480544  
674.000000	3.533045  
674.500000	3.557331  
675.000000	3.530239  
675.500000	3.503601  
676.000000	3.564662  
676.500000	3.759902  
677.000000	4.189341  
677.500000	4.790034  
678.000000	5.443709  
678.500000	6.036925  
679.000000	6.536324  
679.500000	6.846681  
680.000000	6.938727  
680.500000	6.820154  
681.000000	6.615289  
681.500000	6.441763  
682.000000	6.413215  
682.500000	6.510584  
683.000000	6.770256  
683.500000	7.097874  
684.000000	7.486033  
684.500000	7.913321  
685.000000	8.276570  
685.500000	8.574685  
686.000000	8.808763  
686.500000	9.060128  
687.000000	9.242019  
687.500000	9.520418  
688.000000	9.818635  
688.500000	10.087628 
689.000000	10.418432 
689.500000	10.803722 
690.000000	11.109268 
690.500000	11.383967 
691.000000	11.657569 
691.500000	11.760250 
692.000000	11.888267 
692.500000	12.067171 
693.000000	12.115565 
693.500000	12.238873 
694.000000	12.557526 
694.500000	12.895531 
695.000000	13.295940 
695.500000	13.724079 
696.000000	14.038409 
696.500000	14.270612 
697.000000	14.510372 
697.500000	14.579165 
698.000000	14.672334 
698.500000	14.843954 
699.000000	15.014490 
699.500000	15.268203 
700.000000	15.592415 
700.500000	15.893079 
701.000000	16.152622 
701.500000	16.368171 
702.000000	16.437082 
702.500000	16.542472 
703.000000	16.627930 
703.500000	16.667118 
704.000000	16.724895 
704.500000	16.911363 
705.000000	17.164638 
705.500000	17.418248 
706.000000	17.712925 
706.500000	17.910265 
707.000000	18.113404 
707.500000	18.266222 
708.000000	18.341546 
708.500000	18.258368 
709.000000	18.191985 
709.500000	18.123560 
710.000000	17.965637 
710.500000	17.882729 
711.000000	17.742634 
711.500000	17.653855 
712.000000	17.630766 
712.500000	17.684730 
713.000000	17.723260 
713.500000	17.897750 
714.000000	18.155507 
714.500000	18.397084 
715.000000	18.619261 
715.500000	18.746612 
716.000000	18.852244 
716.500000	18.887273 
717.000000	18.896400 
717.500000	18.791591 
718.000000	18.713581 
718.500000	18.667622 
719.000000	18.702084 
719.500000	18.726993 
720.000000	18.729925 
720.500000	18.805353 
721.000000	18.863523 
721.500000	18.913831 
722.000000	18.887933 
722.500000	18.863031 
723.000000	18.838913 
723.500000	18.845072 
724.000000	18.854133 
724.500000	18.875560 
725.000000	18.958789 
725.500000	19.074735 
726.000000	19.168746 
726.500000	19.195073 
727.000000	19.167951 
727.500000	19.102874 
728.000000	18.981186 
728.500000	18.887466 
729.000000	18.768282 
729.500000	18.685736 
730.000000	18.700702 
730.500000	18.776265 
731.000000	18.849547 
731.500000	18.851729 
732.000000	18.775634 
732.500000	18.624697 
733.000000	18.514966 
733.500000	18.272082 
734.000000	17.934984 
734.500000	17.590117 
735.000000	17.314968 
735.500000	17.193320 
736.000000	17.211229 
736.500000	17.352424 
737.000000	17.608676 
737.500000	18.030821 
738.000000	18.400372 
738.500000	18.756547 
739.000000	18.958561 
739.500000	18.981195 
740.000000	18.931802 
740.500000	18.824508 
741.000000	18.718016 
741.500000	18.600566 
742.000000	18.497689 
742.500000	18.339778 
743.000000	18.221735 
743.500000	18.053884 
744.000000	17.751605 
744.500000	17.394026 
745.000000	17.054411 
745.500000	16.902531 
746.000000	16.850971 
746.500000	16.846463 
747.000000	16.912542 
747.500000	17.120664 
748.000000	17.355077 
748.500000	17.533637 
749.000000	17.568429 
749.500000	17.501003 
750.000000	17.517586 
750.500000	17.496424 
751.000000	17.308236 
751.500000	16.988486 
752.000000	16.671679 
752.500000	16.342591 
753.000000	16.046841 
753.500000	15.694157 
754.000000	15.290367 
754.500000	15.021918 
755.000000	14.911931 
755.500000	14.851585 
756.000000	14.721973 
756.500000	14.660007 
757.000000	14.539353 
757.500000	14.496973 
758.000000	14.456437 
758.500000	14.321284 
759.000000	14.159033 
759.500000	14.124089 
760.000000	14.142168 
760.500000	14.066868 
761.000000	13.993083 
761.500000	13.806104 
762.000000	13.576494 
762.500000	13.358492 
763.000000	13.030590 
763.500000	12.633798 
764.000000	12.361130 
764.500000	12.205340 
765.000000	12.045521 
765.500000	12.025120 
766.000000	12.016875 
766.500000	12.002074 
767.000000	12.095848 
767.500000	12.108540 
768.000000	11.993459 
768.500000	11.875453 
769.000000	11.815296 
769.500000	11.724038 
770.000000	11.624764 
770.500000	11.529513 
771.000000	11.365434 
771.500000	11.230129 
772.000000	10.996545 
772.500000	10.723226 
773.000000	10.390676 
773.500000	10.098055 
774.000000	9.862012  
774.500000	9.706625  
775.000000	9.695097  
775.500000	9.769826  
776.000000	9.919459  
776.500000	9.999744  
777.000000	10.082053 
777.500000	10.077197 
778.000000	9.969835  
778.500000	9.806688  
779.000000	9.609893  
779.500000	9.392860  
780.000000	9.218406  
780.500000	9.092707  
781.000000	8.976611  
781.500000	8.925741  
782.000000	8.975285  
782.500000	9.026872  
783.000000	9.084136  
783.500000	9.188641  
784.000000	9.228011  
784.500000	9.199564  
785.000000	9.027255  
785.500000	8.713899  
786.000000	8.255782  
786.500000	7.751808  
787.000000	7.205206  
787.500000	6.665797  
788.000000	6.295146  
788.500000	6.106706  
789.000000	6.072423  
789.500000	6.133080  
790.000000	6.312564  
790.500000	6.552513  
791.000000	6.778673  
791.500000	6.957071  
792.000000	7.043343  
792.500000	6.979922  
793.000000	6.881054  
793.500000	6.728839  
794.000000	6.533575  
794.500000	6.330708  
795.000000	6.138636  
795.500000	5.866215  
796.000000	5.612532  
796.500000	5.339261  
797.000000	5.045721  
797.500000	4.890480  
798.000000	4.779877  
798.500000	4.738741  
799.000000	4.786184  
799.500000	4.917361  
800.000000	5.024348  
800.500000	5.119666  
801.000000	5.142918  
801.500000	5.090108  
802.000000	5.054336  
802.500000	4.987565  
803.000000	4.930358  
803.500000	4.864543  
804.000000	4.843923  
804.500000	4.772951  
805.000000	4.681755  
805.500000	4.564522  
806.000000	4.396039  
806.500000	4.251189  
807.000000	4.124077  
807.500000	4.021202  
808.000000	3.850218  
808.500000	3.783088  
809.000000	3.696571  
809.500000	3.595044  
810.000000	3.548306  
810.500000	3.537969  
811.000000	3.559961  
811.500000	3.600789  
812.000000	3.623046  
812.500000	3.542754  
813.000000	3.559913  
813.500000	3.604996  
814.000000	3.596766  
814.500000	3.531603  
815.000000	3.462056  
815.500000	3.364709  
816.000000	3.240256  
816.500000	3.006854  
817.000000	2.653258  
817.500000	2.397516  
818.000000	2.272339  
818.500000	2.224219  
819.000000	2.206899  
819.500000	2.307209  
820.000000	2.451917  
820.500000	2.510423  
821.000000	2.432492  
821.500000	2.226409  
822.000000	2.005727  
822.500000	1.785942  
823.000000	1.584304  
823.500000	1.395885  
824.000000	1.330651  
824.500000	1.370634  
825.000000	1.419117  
825.500000	1.446805  
826.000000	1.485773  
826.500000	1.542176  
827.000000	1.525407  
827.500000	1.502105  
828.000000	1.495495  
828.500000	1.584835  
829.000000	1.710561  
829.500000	1.823332  
830.000000	1.894700  
830.500000	1.986909  
831.000000	2.058891  
831.500000	1.975793  
832.000000	1.793906  
832.500000	1.547607  
833.000000	1.314071  
833.500000	1.003204  
834.000000	0.707076  
834.500000	0.435620  
835.000000	0.304826  
835.500000	0.290970  
836.000000	0.333077  
836.500000	0.378387  
837.000000	0.392575  
837.500000	0.456017  
838.000000	0.529622  
838.500000	0.581281  
839.000000	0.579576  
839.500000	0.582947  
840.000000	0.617605  
840.500000	0.683764  
841.000000	0.724450  
841.500000	0.720671  
842.000000	0.663409  
842.500000	0.575331  
843.000000	0.481005  
843.500000	0.353574  
844.000000	0.236066  
844.500000	0.167572  
845.000000	0.151811  
845.500000	0.126790  
846.000000	0.143922  
846.500000	0.142822  
847.000000	0.107599  
847.500000	0.084608  
848.000000	0.071613  
848.500000	0.067051  
849.000000	0.106074  
849.500000	0.166783  
850.000000	0.142438  
850.500000	0.126062  
851.000000	0.099148  
851.500000	0.036659  
852.000000	-0.031755 
852.500000	-0.128097 
853.000000	-0.219637 
853.500000	-0.255394 
854.000000	-0.211348 
854.500000	-0.199410 
855.000000	-0.218160 
855.500000	-0.243777 
856.000000	-0.261085 
856.500000	-0.288959 
857.000000	-0.330927 
857.500000	-0.401419 
858.000000	-0.473185 
858.500000	-0.492066 
859.000000	-0.495515 
859.500000	-0.515759 
860.000000	-0.513421 
860.500000	-0.440519 
861.000000	-0.379665 
861.500000	-0.319108 
862.000000	-0.280061 
862.500000	-0.232196 
863.000000	-0.209492 
863.500000	-0.254573 
864.000000	-0.364317 
864.500000	-0.510278 
865.000000	-0.572639 
865.500000	-0.625755 
866.000000	-0.666262 
866.500000	-0.678130 
867.000000	-0.601865 
867.500000	-0.495566 
868.000000	-0.399711 
868.500000	-0.335142 
869.000000	-0.344411 
869.500000	-0.351850 
870.000000	-0.389683 
870.500000	-0.497297 
871.000000	-0.690632 
871.500000	-0.879444 
872.000000	-1.064518 
872.500000	-1.194085 
873.000000	-1.270684 
873.500000	-1.288838 
874.000000	-1.198177 
874.500000	-1.048584 
875.000000	-0.869444 
875.500000	-0.752171 
876.000000	-0.641084 
876.500000	-0.584995 
877.000000	-0.539655 
877.500000	-0.514830 
878.000000	-0.457121 
878.500000	-0.321220 
879.000000	-0.134639 
879.500000	0.074956  
880.000000	0.193533  
880.500000	0.280543  
881.000000	0.285775  
881.500000	0.197182  
882.000000	0.023413  
882.500000	-0.153583 
883.000000	-0.310067 
883.500000	-0.425458 
884.000000	-0.483008 
884.500000	-0.531529 
885.000000	-0.525035 
885.500000	-0.498405 
886.000000	-0.502777 
886.500000	-0.539624 
887.000000	-0.535408 
887.500000	-0.538250 
888.000000	-0.566327 
888.500000	-0.572413 
889.000000	-0.535277 
889.500000	-0.474089 
890.000000	-0.405770 
890.500000	-0.358680 
891.000000	-0.337204 
891.500000	-0.316134 
892.000000	-0.318570 
892.500000	-0.396421 
893.000000	-0.521751 
893.500000	-0.650831 
894.000000	-0.789004 
894.500000	-0.903468 

