PE FL                   SPECTRUM    ASCII       PEDS        1.60        
  -1
PP9C95~1
23/10/10
14:55:54.00
23/10/10
14:55:54.00


444.500000
1









LS55
45.00
5.00
5.00
SCAN
1
20
100
100
0
500
0
2
0
1
7
ON
500 450 
1 0 0
#HDR
-1
-1
#GR
NM

0.00002384185791015625
0.0
250.000000
0.500000
390
8
6.971000
-4.974635
#DATA
250.000000	6.971000  
250.500000	3.733361  
251.000000	0.847315  
251.500000	-1.896081 
252.000000	-3.704339 
252.500000	-4.668248 
253.000000	-4.974635 
253.500000	-4.906363 
254.000000	-4.514772 
254.500000	-3.991781 
255.000000	-3.480781 
255.500000	-3.103315 
256.000000	-3.348199 
256.500000	-3.520145 
257.000000	-3.682187 
257.500000	-3.578378 
258.000000	-3.124732 
258.500000	-2.406996 
259.000000	-1.450387 
259.500000	-0.058715 
260.000000	1.264567  
260.500000	2.331184  
261.000000	3.222203  
261.500000	3.714126  
262.000000	3.746466  
262.500000	3.590931  
263.000000	3.243035  
263.500000	2.489437  
264.000000	1.718363  
264.500000	0.690570  
265.000000	-0.471005 
265.500000	-1.675344 
266.000000	-2.521446 
266.500000	-3.169261 
267.000000	-3.355678 
267.500000	-2.751525 
268.000000	-1.961510 
268.500000	-0.619519 
269.000000	0.980364  
269.500000	2.260488  
270.000000	2.757674  
270.500000	2.986103  
271.000000	2.665982  
271.500000	1.785939  
272.000000	0.921930  
272.500000	0.040367  
273.000000	-0.715518 
273.500000	-0.820014 
274.000000	-0.705800 
274.500000	-0.298076 
275.000000	0.405537  
275.500000	1.204394  
276.000000	1.578482  
276.500000	1.893671  
277.000000	2.204983  
277.500000	2.067842  
278.000000	1.696102  
278.500000	1.104809  
279.000000	0.641297  
279.500000	0.415985  
280.000000	0.587668  
280.500000	0.779562  
281.000000	0.890362  
281.500000	1.350749  
282.000000	1.584780  
282.500000	1.576642  
283.000000	1.149364  
283.500000	0.487684  
284.000000	-0.062792 
284.500000	-0.168018 
285.000000	0.311862  
285.500000	1.213998  
286.000000	2.368637  
286.500000	3.425090  
287.000000	4.298542  
287.500000	4.839249  
288.000000	4.432385  
288.500000	3.439931  
289.000000	2.002873  
289.500000	0.630402  
290.000000	-0.304094 
290.500000	-0.759500 
291.000000	-0.986225 
291.500000	-0.819948 
292.000000	-0.328308 
292.500000	0.166336  
293.000000	0.659010  
293.500000	0.967930  
294.000000	1.059869  
294.500000	1.149581  
295.000000	1.495701  
295.500000	1.670201  
296.000000	1.428508  
296.500000	1.001707  
297.000000	0.646747  
297.500000	0.188687  
298.000000	-0.116525 
298.500000	-0.238756 
299.000000	-0.178575 
299.500000	0.213890  
300.000000	0.826023  
300.500000	1.261882  
301.000000	1.316646  
301.500000	1.246607  
302.000000	0.725817  
302.500000	0.291700  
303.000000	0.031204  
303.500000	0.139320  
304.000000	0.362149  
304.500000	0.922810  
305.000000	1.600843  
305.500000	2.147210  
306.000000	2.491002  
306.500000	2.307510  
307.000000	1.715649  
307.500000	0.998103  
308.000000	0.641533  
308.500000	0.337350  
309.000000	0.204636  
309.500000	0.329460  
310.000000	0.588016  
310.500000	0.943819  
311.000000	1.127286  
311.500000	0.906942  
312.000000	0.312611  
312.500000	-0.293330 
313.000000	-0.754289 
313.500000	-1.063678 
314.000000	-1.224553 
314.500000	-1.265144 
315.000000	-0.914428 
315.500000	-0.267761 
316.000000	0.457664  
316.500000	1.025942  
317.000000	1.443478  
317.500000	1.718217  
318.000000	1.943270  
318.500000	2.060874  
319.000000	1.874269  
319.500000	1.632112  
320.000000	1.376741  
320.500000	1.285992  
321.000000	1.283147  
321.500000	1.344343  
322.000000	1.311787  
322.500000	1.374575  
323.000000	1.409608  
323.500000	1.161369  
324.000000	0.677895  
324.500000	0.260180  
325.000000	-0.004566 
325.500000	-0.191568 
326.000000	-0.180503 
326.500000	-0.053526 
327.000000	0.191363  
327.500000	0.465803  
328.000000	0.546542  
328.500000	0.346081  
329.000000	0.148019  
329.500000	0.015591  
330.000000	-0.288932 
330.500000	-0.646323 
331.000000	-0.927342 
331.500000	-1.054649 
332.000000	-1.064235 
332.500000	-1.116092 
333.000000	-1.137494 
333.500000	-0.966476 
334.000000	-0.510850 
334.500000	-0.164836 
335.000000	0.173140  
335.500000	0.492229  
336.000000	0.642247  
336.500000	0.719624  
337.000000	0.531735  
337.500000	0.217359  
338.000000	0.010234  
338.500000	-0.061891 
339.000000	-0.127628 
339.500000	-0.130399 
340.000000	-0.077322 
340.500000	-0.109739 
341.000000	0.016980  
341.500000	0.242304  
342.000000	0.370508  
342.500000	0.566951  
343.000000	0.780697  
343.500000	0.973619  
344.000000	1.107811  
344.500000	1.200672  
345.000000	1.025877  
345.500000	0.721704  
346.000000	0.531491  
346.500000	0.350759  
347.000000	0.250549  
347.500000	0.212317  
348.000000	0.262010  
348.500000	0.378209  
349.000000	0.459961  
349.500000	0.483378  
350.000000	0.478847  
350.500000	0.564994  
351.000000	0.706707  
351.500000	0.877483  
352.000000	1.120635  
352.500000	1.379320  
353.000000	1.620586  
353.500000	1.754336  
354.000000	1.846491  
354.500000	1.958164  
355.000000	2.066187  
355.500000	2.215999  
356.000000	2.406104  
356.500000	2.586007  
357.000000	2.740968  
357.500000	2.851034  
358.000000	2.877458  
358.500000	2.848611  
359.000000	2.814526  
359.500000	2.816846  
360.000000	2.911262  
360.500000	3.098188  
361.000000	3.224670  
361.500000	3.291803  
362.000000	3.119327  
362.500000	2.956010  
363.000000	2.790808  
363.500000	2.580117  
364.000000	2.322300  
364.500000	2.064206  
365.000000	1.980053  
365.500000	1.954614  
366.000000	1.997000  
366.500000	1.900360  
367.000000	1.856309  
367.500000	1.859548  
368.000000	1.910558  
368.500000	1.982441  
369.000000	2.018580  
369.500000	2.188698  
370.000000	2.339766  
370.500000	2.531138  
371.000000	2.548074  
371.500000	2.498422  
372.000000	2.394290  
372.500000	2.250346  
373.000000	2.096437  
373.500000	1.880670  
374.000000	1.778192  
374.500000	1.767011  
375.000000	1.861743  
375.500000	1.958985  
376.000000	2.060387  
376.500000	2.175872  
377.000000	2.259453  
377.500000	2.255212  
378.000000	2.191577  
378.500000	2.138205  
379.000000	2.122916  
379.500000	2.100048  
380.000000	2.042874  
380.500000	1.974663  
381.000000	1.897592  
381.500000	1.800523  
382.000000	1.686463  
382.500000	1.517530  
383.000000	1.382004  
383.500000	1.351974  
384.000000	1.283626  
384.500000	1.222438  
385.000000	1.287763  
385.500000	1.368446  
386.000000	1.446763  
386.500000	1.530505  
387.000000	1.537156  
387.500000	1.598359  
388.000000	1.698164  
388.500000	1.672745  
389.000000	1.580056  
389.500000	1.512751  
390.000000	1.411810  
390.500000	1.242417  
391.000000	1.071011  
391.500000	0.859944  
392.000000	0.732231  
392.500000	0.659622  
393.000000	0.577859  
393.500000	0.539107  
394.000000	0.601531  
394.500000	0.715734  
395.000000	0.832854  
395.500000	0.909010  
396.000000	0.944815  
396.500000	0.992193  
397.000000	1.009685  
397.500000	0.936955  
398.000000	0.816327  
398.500000	0.684930  
399.000000	0.552523  
399.500000	0.455312  
400.000000	0.367113  
400.500000	0.287773  
401.000000	0.246324  
401.500000	0.256109  
402.000000	0.269805  
402.500000	0.293058  
403.000000	0.343152  
403.500000	0.387865  
404.000000	0.466617  
404.500000	0.566313  
405.000000	0.622285  
405.500000	0.638509  
406.000000	0.634051  
406.500000	0.571295  
407.000000	0.491263  
407.500000	0.441890  
408.000000	0.385889  
408.500000	0.363345  
409.000000	0.423693  
409.500000	0.504083  
410.000000	0.612977  
410.500000	0.720838  
411.000000	0.782041  
411.500000	0.794660  
412.000000	0.779836  
412.500000	0.710502  
413.000000	0.602395  
413.500000	0.502446  
414.000000	0.381897  
414.500000	0.286875  
415.000000	0.240274  
415.500000	0.250025  
416.000000	0.294806  
416.500000	0.353699  
417.000000	0.394603  
417.500000	0.434293  
418.000000	0.475594  
418.500000	0.486918  
419.000000	0.471178  
419.500000	0.461708  
420.000000	0.467615  
420.500000	0.491153  
421.000000	0.505673  
421.500000	0.486382  
422.000000	0.473996  
422.500000	0.460771  
423.000000	0.428730  
423.500000	0.404513  
424.000000	0.405712  
424.500000	0.431681  
425.000000	0.485340  
425.500000	0.548383  
426.000000	0.604781  
426.500000	0.652352  
427.000000	0.688241  
427.500000	0.684392  
428.000000	0.680197  
428.500000	0.671882  
429.000000	0.669181  
429.500000	0.671961  
430.000000	0.669601  
430.500000	0.665568  
431.000000	0.647282  
431.500000	0.624460  
432.000000	0.585276  
432.500000	0.551035  
433.000000	0.514196  
433.500000	0.486674  
434.000000	0.474069  
434.500000	0.471639  
435.000000	0.490464  
435.500000	0.500277  
436.000000	0.496711  
436.500000	0.492901  
437.000000	0.492851  
437.500000	0.496839  
438.000000	0.508313  
438.500000	0.512823  
439.000000	0.495399  
439.500000	0.471162  
440.000000	0.435315  
440.500000	0.377397  
441.000000	0.316733  
441.500000	0.261057  
442.000000	0.228391  
442.500000	0.238540  
443.000000	0.276333  
443.500000	0.323521  
444.000000	0.372090  
444.500000	0.406770  

