PE FL                   SPECTRUM    ASCII       PEDS        1.60        
  -1
PP9C15~1
23/10/10
14:50:31.00
23/10/10
14:50:31.00


444.500000
1









LS55
5.00
5.00
5.00
SCAN
1
20
100
100
0
500
0
2
0
1
7
ON
500 450 
1 0 0
#HDR
-1
-1
#GR
NM

0.00002384185791015625
0.0
250.000000
0.500000
390
8
56.575399
-5.000000
#DATA
250.000000	-5.000000 
250.500000	-2.721935 
251.000000	-1.050053 
251.500000	0.074507  
252.000000	0.280960  
252.500000	-0.229308 
253.000000	-1.315510 
253.500000	-2.370122 
254.000000	-3.017163 
254.500000	-3.145728 
255.000000	-2.282625 
255.500000	-0.936471 
256.000000	0.670058  
256.500000	2.071191  
257.000000	3.196865  
257.500000	3.555004  
258.000000	3.070107  
258.500000	2.158149  
259.000000	0.461933  
259.500000	-1.103238 
260.000000	-2.671932 
260.500000	-3.735817 
261.000000	-4.350435 
261.500000	-4.284419 
262.000000	-3.838313 
262.500000	-3.364828 
263.000000	-2.639624 
263.500000	-2.352355 
264.000000	-2.161305 
264.500000	-2.670691 
265.000000	-3.120375 
265.500000	-3.627929 
266.000000	-4.184392 
266.500000	-4.714406 
267.000000	-4.781829 
267.500000	-4.483279 
268.000000	-4.132386 
268.500000	-3.159994 
269.000000	-2.471009 
269.500000	-1.575955 
270.000000	-0.759665 
270.500000	-0.081175 
271.000000	0.450004  
271.500000	0.986580  
272.000000	1.535213  
272.500000	1.539446  
273.000000	1.600912  
273.500000	1.334612  
274.000000	0.948501  
274.500000	0.334557  
275.000000	-0.735816 
275.500000	-1.792765 
276.000000	-2.494623 
276.500000	-2.554445 
277.000000	-2.823442 
277.500000	-2.359185 
278.000000	-1.609705 
278.500000	-0.614542 
279.000000	0.541306  
279.500000	1.216467  
280.000000	1.577812  
280.500000	1.714764  
281.000000	1.938766  
281.500000	1.682169  
282.000000	1.562546  
282.500000	1.504715  
283.000000	1.332854  
283.500000	1.468917  
284.000000	1.416223  
284.500000	1.143356  
285.000000	0.715342  
285.500000	0.569735  
286.000000	0.464691  
286.500000	0.522072  
287.000000	0.446083  
287.500000	0.466310  
288.000000	0.949417  
288.500000	1.612400  
289.000000	2.177984  
289.500000	2.528657  
290.000000	2.814277  
290.500000	3.259856  
291.000000	3.516545  
291.500000	3.240398  
292.000000	2.599064  
292.500000	2.279507  
293.000000	2.006995  
293.500000	1.834411  
294.000000	1.618898  
294.500000	1.631466  
295.000000	1.780886  
295.500000	2.086107  
296.000000	2.094602  
296.500000	1.623147  
297.000000	1.140033  
297.500000	0.607778  
298.000000	0.061145  
298.500000	-0.540958 
299.000000	-0.769042 
299.500000	-0.962231 
300.000000	-1.146870 
300.500000	-1.105139 
301.000000	-1.025149 
301.500000	-0.950636 
302.000000	-1.033403 
302.500000	-0.896647 
303.000000	-0.771526 
303.500000	-0.348772 
304.000000	0.035090  
304.500000	0.069309  
305.000000	0.137971  
305.500000	0.348924  
306.000000	0.639793  
306.500000	0.810124  
307.000000	1.049781  
307.500000	1.347826  
308.000000	1.924053  
308.500000	2.586823  
309.000000	2.910465  
309.500000	3.082075  
310.000000	3.052131  
310.500000	3.105161  
311.000000	3.061761  
311.500000	2.826932  
312.000000	2.409364  
312.500000	2.262411  
313.000000	2.439677  
313.500000	2.759000  
314.000000	3.196594  
314.500000	3.439413  
315.000000	3.682895  
315.500000	4.055640  
316.000000	4.315085  
316.500000	4.404308  
317.000000	4.661884  
317.500000	5.112136  
318.000000	5.925813  
318.500000	7.013556  
319.000000	8.063064  
319.500000	8.872256  
320.000000	9.498883  
320.500000	9.799549  
321.000000	9.611974  
321.500000	9.200560  
322.000000	8.727547  
322.500000	8.471445  
323.000000	8.421574  
323.500000	8.715155  
324.000000	9.277731  
324.500000	9.903582  
325.000000	10.482214 
325.500000	10.852728 
326.000000	10.945570 
326.500000	10.790864 
327.000000	10.484074 
327.500000	10.151565 
328.000000	9.917246  
328.500000	9.821484  
329.000000	9.935837  
329.500000	10.299328 
330.000000	10.801937 
330.500000	11.234148 
331.000000	11.807376 
331.500000	12.265811 
332.000000	12.698163 
332.500000	13.020551 
333.000000	13.370785 
333.500000	13.648793 
334.000000	13.822990 
334.500000	13.945622 
335.000000	13.837592 
335.500000	13.644370 
336.000000	13.378633 
336.500000	13.282208 
337.000000	13.244647 
337.500000	13.805193 
338.000000	14.668595 
338.500000	15.714333 
339.000000	16.870789 
339.500000	17.891595 
340.000000	18.646599 
340.500000	19.137684 
341.000000	19.289174 
341.500000	18.894016 
342.000000	18.727099 
342.500000	18.429030 
343.000000	18.188101 
343.500000	18.039962 
344.000000	18.126015 
344.500000	18.274453 
345.000000	18.774832 
345.500000	19.419318 
346.000000	20.213008 
346.500000	21.392711 
347.000000	22.396341 
347.500000	23.439691 
348.000000	24.281112 
348.500000	24.835958 
349.000000	25.062757 
349.500000	25.287854 
350.000000	25.417244 
350.500000	25.752155 
351.000000	26.294112 
351.500000	26.827964 
352.000000	27.394699 
352.500000	28.016817 
353.000000	28.748519 
353.500000	29.336179 
354.000000	30.098130 
354.500000	31.195956 
355.000000	32.830018 
355.500000	34.952478 
356.000000	37.638986 
356.500000	40.439584 
357.000000	43.296093 
357.500000	46.140819 
358.000000	48.392498 
358.500000	49.839278 
359.000000	50.832434 
359.500000	51.187733 
360.000000	51.241594 
360.500000	51.404748 
361.000000	51.525264 
361.500000	51.836650 
362.000000	52.761070 
362.500000	54.010827 
363.000000	55.052810 
363.500000	56.116054 
364.000000	56.575399 
364.500000	56.344356 
365.000000	55.747587 
365.500000	54.658074 
366.000000	53.279530 
366.500000	51.846571 
367.000000	50.723230 
367.500000	49.689288 
368.000000	49.250546 
368.500000	48.993679 
369.000000	48.516773 
369.500000	48.439299 
370.000000	48.458027 
370.500000	48.470494 
371.000000	48.234744 
371.500000	48.031945 
372.000000	47.970578 
372.500000	48.199643 
373.000000	48.656022 
373.500000	48.727751 
374.000000	49.188525 
374.500000	49.780455 
375.000000	50.452187 
375.500000	50.989382 
376.000000	51.481436 
376.500000	52.232908 
377.000000	52.853550 
377.500000	53.640680 
378.000000	54.336691 
378.500000	55.172159 
379.000000	55.936808 
379.500000	56.166645 
380.000000	55.891377 
380.500000	55.335058 
381.000000	54.914510 
381.500000	53.832959 
382.000000	52.707393 
382.500000	51.793281 
383.000000	51.275696 
383.500000	51.093232 
384.000000	50.543955 
384.500000	49.572635 
385.000000	48.481890 
385.500000	47.545264 
386.000000	46.159592 
386.500000	44.466803 
387.000000	42.611823 
387.500000	40.856414 
388.000000	39.563144 
388.500000	38.299287 
389.000000	36.873840 
389.500000	35.288465 
390.000000	33.839986 
390.500000	32.511933 
391.000000	31.118216 
391.500000	29.487921 
392.000000	27.560198 
392.500000	25.738231 
393.000000	24.137250 
393.500000	22.723084 
394.000000	21.399949 
394.500000	20.406777 
395.000000	19.950508 
395.500000	19.879980 
396.000000	20.200929 
396.500000	20.507320 
397.000000	20.710701 
397.500000	20.895579 
398.000000	20.808393 
398.500000	20.443633 
399.000000	19.965001 
399.500000	19.294448 
400.000000	18.409647 
400.500000	17.618417 
401.000000	16.812740 
401.500000	15.968999 
402.000000	15.293877 
402.500000	14.617790 
403.000000	14.084824 
403.500000	13.782304 
404.000000	13.633894 
404.500000	13.464008 
405.000000	13.330082 
405.500000	13.215516 
406.000000	12.995480 
406.500000	12.744260 
407.000000	12.403074 
407.500000	11.936888 
408.000000	11.468453 
408.500000	11.061273 
409.000000	10.701217 
409.500000	10.465160 
410.000000	10.342092 
410.500000	10.244912 
411.000000	10.167225 
411.500000	10.204017 
412.000000	10.197623 
412.500000	10.210225 
413.000000	10.270668 
413.500000	10.343816 
414.000000	10.495278 
414.500000	10.709717 
415.000000	10.909073 
415.500000	11.119498 
416.000000	11.429762 
416.500000	11.696112 
417.000000	11.940074 
417.500000	12.280298 
418.000000	12.609907 
418.500000	12.984362 
419.000000	13.338247 
419.500000	13.667061 
420.000000	13.993416 
420.500000	14.370251 
421.000000	14.687388 
421.500000	14.874109 
422.000000	15.138888 
422.500000	15.390839 
423.000000	15.671255 
423.500000	15.920030 
424.000000	16.130810 
424.500000	16.378320 
425.000000	16.874693 
425.500000	17.472405 
426.000000	18.103880 
426.500000	18.800379 
427.000000	19.544762 
427.500000	20.304221 
428.000000	20.936096 
428.500000	21.378850 
429.000000	21.699127 
429.500000	22.089744 
430.000000	22.610065 
430.500000	23.408236 
431.000000	24.467466 
431.500000	25.832513 
432.000000	27.448739 
432.500000	29.444123 
433.000000	31.640709 
433.500000	33.841661 
434.000000	35.938452 
434.500000	37.963845 
435.000000	39.784202 
435.500000	41.440981 
436.000000	42.783278 
436.500000	43.659608 
437.000000	44.346979 
437.500000	44.815209 
438.000000	45.063435 
438.500000	45.057737 
439.000000	45.096430 
439.500000	44.967094 
440.000000	45.303654 
440.500000	45.923626 
441.000000	46.689455 
441.500000	47.864665 
442.000000	49.250652 
442.500000	50.835966 
443.000000	52.499740 
443.500000	54.109757 
444.000000	55.089892 
444.500000	55.994556 

