PE FL                   SPECTRUM    ASCII       PEDS        1.60        
  -1
PMAD71~1
23/10/10
17:04:40.00
23/10/10
17:04:40.00


444.500000
1









LS55
40.00
5.00
5.00
SCAN
1
20
100
100
0
500
0
2
0
1
7
ON
500 450 
1 0 0
#HDR
-1
-1
#GR
NM

0.00002384185791015625
0.0
300.000000
0.500000
290
8
60.840883
-5.000000
#DATA
300.000000	-5.000000 
300.500000	-3.029736 
301.000000	-1.102107 
301.500000	0.323707  
302.000000	1.606916  
302.500000	2.733528  
303.000000	3.383074  
303.500000	3.626836  
304.000000	4.146772  
304.500000	5.013376  
305.000000	6.276837  
305.500000	8.249837  
306.000000	10.385035 
306.500000	12.678130 
307.000000	14.976891 
307.500000	16.801012 
308.000000	18.074742 
308.500000	18.667880 
309.000000	18.929564 
309.500000	19.043817 
310.000000	19.222913 
310.500000	19.496269 
311.000000	19.962482 
311.500000	20.566719 
312.000000	20.684928 
312.500000	21.054867 
313.000000	21.179046 
313.500000	21.167317 
314.000000	21.413388 
314.500000	21.923329 
315.000000	22.673085 
315.500000	23.578083 
316.000000	24.771047 
316.500000	25.597242 
317.000000	26.787217 
317.500000	27.746461 
318.000000	28.373486 
318.500000	28.633877 
319.000000	28.634078 
319.500000	28.479884 
320.000000	28.227751 
320.500000	27.928035 
321.000000	27.076632 
321.500000	26.440160 
322.000000	26.036493 
322.500000	25.770830 
323.000000	25.650051 
323.500000	25.921051 
324.000000	26.420702 
324.500000	27.090908 
325.000000	27.774622 
325.500000	28.061588 
326.000000	28.035729 
326.500000	27.815613 
327.000000	27.307289 
327.500000	26.429845 
328.000000	25.712949 
328.500000	24.916188 
329.000000	24.344502 
329.500000	24.374827 
330.000000	24.622757 
330.500000	24.867259 
331.000000	25.302040 
331.500000	25.662777 
332.000000	25.487415 
332.500000	25.070809 
333.000000	24.329697 
333.500000	23.224898 
334.000000	22.369587 
334.500000	21.591656 
335.000000	20.983039 
335.500000	20.813486 
336.000000	21.246905 
336.500000	21.782022 
337.000000	22.573534 
337.500000	23.377549 
338.000000	24.051809 
338.500000	24.871640 
339.000000	25.436524 
339.500000	26.481382 
340.000000	28.024219 
340.500000	30.392136 
341.000000	33.181899 
341.500000	36.594173 
342.000000	40.400418 
342.500000	44.376121 
343.000000	48.410579 
343.500000	51.754208 
344.000000	54.819121 
344.500000	57.395017 
345.000000	59.499705 
345.500000	60.567684 
346.000000	60.840883 
346.500000	60.295893 
347.000000	58.893924 
347.500000	56.609495 
348.000000	53.446411 
348.500000	49.860599 
349.000000	46.185254 
349.500000	42.554517 
350.000000	39.038856 
350.500000	35.623687 
351.000000	32.594672 
351.500000	29.770958 
352.000000	26.934566 
352.500000	24.144647 
353.000000	21.308168 
353.500000	18.707233 
354.000000	16.283896 
354.500000	14.208237 
355.000000	12.323732 
355.500000	10.964239 
356.000000	10.020906 
356.500000	9.395567  
357.000000	8.897740  
357.500000	8.528756  
358.000000	8.202137  
358.500000	7.727745  
359.000000	7.188867  
359.500000	6.542814  
360.000000	5.980812  
360.500000	5.379822  
361.000000	4.903030  
361.500000	4.465801  
362.000000	4.129221  
362.500000	3.737625  
363.000000	3.350577  
363.500000	2.931061  
364.000000	2.565713  
364.500000	2.366278  
365.000000	2.165192  
365.500000	2.133674  
366.000000	2.186480  
366.500000	2.346029  
367.000000	2.514899  
367.500000	2.695602  
368.000000	2.837707  
368.500000	2.965712  
369.000000	3.086036  
369.500000	3.062559  
370.000000	2.991256  
370.500000	2.972904  
371.000000	2.932327  
371.500000	2.816001  
372.000000	2.707595  
372.500000	2.534944  
373.000000	2.359412  
373.500000	2.225176  
374.000000	2.103689  
374.500000	1.968517  
375.000000	1.909722  
375.500000	1.838766  
376.000000	1.797505  
376.500000	1.812241  
377.000000	1.711629  
377.500000	1.615152  
378.000000	1.523723  
378.500000	1.476127  
379.000000	1.436634  
379.500000	1.529061  
380.000000	1.582269  
380.500000	1.706490  
381.000000	1.851276  
381.500000	1.891662  
382.000000	1.874302  
382.500000	1.817136  
383.000000	1.743473  
383.500000	1.626264  
384.000000	1.619384  
384.500000	1.602037  
385.000000	1.671157  
385.500000	1.753854  
386.000000	1.818949  
386.500000	1.861810  
387.000000	1.936844  
387.500000	1.950606  
388.000000	1.896564  
388.500000	1.917048  
389.000000	1.895037  
389.500000	1.866739  
390.000000	1.831505  
390.500000	1.843377  
391.000000	1.802621  
391.500000	1.770923  
392.000000	1.657565  
392.500000	1.521682  
393.000000	1.431179  
393.500000	1.353631  
394.000000	1.274574  
394.500000	1.203601  
395.000000	1.266972  
395.500000	1.378292  
396.000000	1.509413  
396.500000	1.548935  
397.000000	1.577974  
397.500000	1.604919  
398.000000	1.563637  
398.500000	1.460699  
399.000000	1.300811  
399.500000	1.203547  
400.000000	1.158338  
400.500000	1.127807  
401.000000	1.070007  
401.500000	1.063429  
402.000000	1.131640  
402.500000	1.195309  
403.000000	1.235521  
403.500000	1.248963  
404.000000	1.276509  
404.500000	1.311549  
405.000000	1.322908  
405.500000	1.309695  
406.000000	1.278523  
406.500000	1.280358  
407.000000	1.284380  
407.500000	1.281346  
408.000000	1.278123  
408.500000	1.281961  
409.000000	1.283086  
409.500000	1.308944  
410.000000	1.340544  
410.500000	1.354727  
411.000000	1.362295  
411.500000	1.374586  
412.000000	1.409363  
412.500000	1.416780  
413.000000	1.424707  
413.500000	1.399997  
414.000000	1.372925  
414.500000	1.311991  
415.000000	1.246733  
415.500000	1.159101  
416.000000	1.045517  
416.500000	0.970330  
417.000000	0.905010  
417.500000	0.870666  
418.000000	0.848476  
418.500000	0.855368  
419.000000	0.869164  
419.500000	0.883442  
420.000000	0.919784  
420.500000	0.937327  
421.000000	0.957232  
421.500000	0.983029  
422.000000	1.017746  
422.500000	1.030671  
423.000000	1.025539  
423.500000	1.018954  
424.000000	1.004516  
424.500000	1.004538  
425.000000	1.001279  
425.500000	0.984726  
426.000000	0.977200  
426.500000	0.968232  
427.000000	0.937444  
427.500000	0.893771  
428.000000	0.868012  
428.500000	0.856548  
429.000000	0.857915  
429.500000	0.880767  
430.000000	0.888851  
430.500000	0.886597  
431.000000	0.876637  
431.500000	0.824096  
432.000000	0.767610  
432.500000	0.695726  
433.000000	0.640147  
433.500000	0.604193  
434.000000	0.607540  
434.500000	0.632054  
435.000000	0.677280  
435.500000	0.737581  
436.000000	0.779340  
436.500000	0.822407  
437.000000	0.848131  
437.500000	0.856469  
438.000000	0.859486  
438.500000	0.869959  
439.000000	0.857331  
439.500000	0.831799  
440.000000	0.815341  
440.500000	0.786361  
441.000000	0.767920  
441.500000	0.751413  
442.000000	0.741172  
442.500000	0.751250  
443.000000	0.774639  
443.500000	0.796933  
444.000000	0.818018  
444.500000	0.833326  

