PE FL                   SPECTRUM    ASCII       PEDS        1.60        
  -1
PMAD61~1
23/10/10
17:04:06.00
23/10/10
17:04:06.00


444.500000
1









LS55
35.00
5.00
5.00
SCAN
1
20
100
100
0
500
0
2
0
1
7
ON
500 450 
1 0 0
#HDR
-1
-1
#GR
NM

0.00002384185791015625
0.0
300.000000
0.500000
290
8
69.893319
-5.000000
#DATA
300.000000	-5.000000 
300.500000	-3.368638 
301.000000	-2.324407 
301.500000	-1.629307 
302.000000	-1.731689 
302.500000	-1.942645 
303.000000	-2.324777 
303.500000	-2.572060 
304.000000	-2.784777 
304.500000	-2.462894 
305.000000	-1.700109 
305.500000	-0.952071 
306.000000	-0.046040 
306.500000	0.472646  
307.000000	1.138751  
307.500000	2.079040  
308.000000	3.257835  
308.500000	4.572224  
309.000000	6.101400  
309.500000	7.833772  
310.000000	9.450902  
310.500000	11.020240 
311.000000	12.203824 
311.500000	13.042889 
312.000000	13.637929 
312.500000	14.185393 
313.000000	14.706463 
313.500000	15.321149 
314.000000	16.000038 
314.500000	16.620044 
315.000000	17.467506 
315.500000	18.375091 
316.000000	19.107013 
316.500000	19.508797 
317.000000	20.011683 
317.500000	20.360410 
318.000000	20.869528 
318.500000	21.352923 
319.000000	21.695011 
319.500000	22.273759 
320.000000	22.694130 
320.500000	23.003854 
321.000000	22.937001 
321.500000	23.167987 
322.000000	23.340353 
322.500000	23.881115 
323.000000	24.711935 
323.500000	25.478644 
324.000000	26.396929 
324.500000	26.836081 
325.000000	27.042970 
325.500000	26.569224 
326.000000	25.839802 
326.500000	24.852633 
327.000000	23.733084 
327.500000	22.950108 
328.000000	22.455709 
328.500000	22.594567 
329.000000	22.801909 
329.500000	23.414993 
330.000000	24.189999 
330.500000	24.979361 
331.000000	25.993758 
331.500000	26.771500 
332.000000	27.533467 
332.500000	28.012067 
333.000000	28.417865 
333.500000	28.416346 
334.000000	28.237445 
334.500000	28.011222 
335.000000	27.478672 
335.500000	27.193875 
336.000000	26.967961 
336.500000	26.783166 
337.000000	26.629224 
337.500000	26.566110 
338.000000	26.741906 
338.500000	27.262559 
339.000000	28.271331 
339.500000	29.331537 
340.000000	31.115646 
340.500000	33.883672 
341.000000	37.564791 
341.500000	42.008853 
342.000000	46.837547 
342.500000	51.740386 
343.000000	56.489721 
343.500000	60.820374 
344.000000	64.077521 
344.500000	66.728359 
345.000000	68.536648 
345.500000	69.524581 
346.000000	69.893319 
346.500000	69.574783 
347.000000	68.550609 
347.500000	66.700775 
348.000000	64.064663 
348.500000	60.507389 
349.000000	56.751700 
349.500000	52.462780 
350.000000	47.969466 
350.500000	43.532413 
351.000000	39.405408 
351.500000	35.746575 
352.000000	32.214149 
352.500000	28.651526 
353.000000	25.089033 
353.500000	22.118014 
354.000000	19.332853 
354.500000	16.796121 
355.000000	14.442559 
355.500000	12.334645 
356.000000	10.651447 
356.500000	9.240607  
357.000000	8.128400  
357.500000	7.132175  
358.000000	6.348851  
358.500000	5.702806  
359.000000	5.194501  
359.500000	4.695129  
360.000000	4.241771  
360.500000	3.732099  
361.000000	3.292455  
361.500000	2.982654  
362.000000	2.721469  
362.500000	2.419753  
363.000000	2.168450  
363.500000	1.974364  
364.000000	1.801918  
364.500000	1.732035  
365.000000	1.634491  
365.500000	1.509373  
366.000000	1.470039  
366.500000	1.561771  
367.000000	1.688458  
367.500000	1.804351  
368.000000	1.878410  
368.500000	1.915490  
369.000000	1.889767  
369.500000	1.782335  
370.000000	1.601099  
370.500000	1.401704  
371.000000	1.236495  
371.500000	1.254002  
372.000000	1.346310  
372.500000	1.523102  
373.000000	1.806218  
373.500000	2.025617  
374.000000	2.186572  
374.500000	2.335664  
375.000000	2.405588  
375.500000	2.321877  
376.000000	2.273594  
376.500000	2.180083  
377.000000	2.136815  
377.500000	2.128820  
378.000000	2.084083  
378.500000	1.977350  
379.000000	1.920736  
379.500000	1.902346  
380.000000	1.780715  
380.500000	1.640261  
381.000000	1.489287  
381.500000	1.471661  
382.000000	1.476846  
382.500000	1.578487  
383.000000	1.678252  
383.500000	1.800126  
384.000000	1.942429  
384.500000	2.021845  
385.000000	2.055006  
385.500000	2.003548  
386.000000	1.995018  
386.500000	1.901376  
387.000000	1.895979  
387.500000	1.875936  
388.000000	1.817307  
388.500000	1.774134  
389.000000	1.681904  
389.500000	1.609216  
390.000000	1.520893  
390.500000	1.457474  
391.000000	1.362018  
391.500000	1.324641  
392.000000	1.286184  
392.500000	1.236379  
393.000000	1.167472  
393.500000	1.085597  
394.000000	1.082188  
394.500000	1.070052  
395.000000	1.116523  
395.500000	1.191916  
396.000000	1.305045  
396.500000	1.411768  
397.000000	1.480044  
397.500000	1.490208  
398.000000	1.454361  
398.500000	1.462388  
399.000000	1.462377  
399.500000	1.499261  
400.000000	1.535231  
400.500000	1.584341  
401.000000	1.643229  
401.500000	1.673626  
402.000000	1.626711  
402.500000	1.535082  
403.000000	1.403937  
403.500000	1.270891  
404.000000	1.198505  
404.500000	1.119121  
405.000000	1.084416  
405.500000	1.103234  
406.000000	1.184892  
406.500000	1.292893  
407.000000	1.423223  
407.500000	1.533924  
408.000000	1.625231  
408.500000	1.686981  
409.000000	1.648567  
409.500000	1.510822  
410.000000	1.323003  
410.500000	1.138417  
411.000000	0.959254  
411.500000	0.834879  
412.000000	0.803408  
412.500000	0.843434  
413.000000	0.943960  
413.500000	1.069079  
414.000000	1.164208  
414.500000	1.247488  
415.000000	1.297953  
415.500000	1.271680  
416.000000	1.179107  
416.500000	1.091397  
417.000000	1.023486  
417.500000	0.969250  
418.000000	0.937416  
418.500000	0.928549  
419.000000	0.963735  
419.500000	1.011140  
420.000000	1.012839  
420.500000	0.992229  
421.000000	0.942685  
421.500000	0.900181  
422.000000	0.837749  
422.500000	0.771985  
423.000000	0.729302  
423.500000	0.740402  
424.000000	0.791473  
424.500000	0.833215  
425.000000	0.911263  
425.500000	0.965512  
426.000000	1.020329  
426.500000	1.030140  
427.000000	1.015030  
427.500000	0.963796  
428.000000	0.883716  
428.500000	0.804494  
429.000000	0.718959  
429.500000	0.684052  
430.000000	0.656871  
430.500000	0.662012  
431.000000	0.681751  
431.500000	0.735328  
432.000000	0.775469  
432.500000	0.796397  
433.000000	0.801190  
433.500000	0.815142  
434.000000	0.858548  
434.500000	0.889510  
435.000000	0.925595  
435.500000	0.960293  
436.000000	1.002812  
436.500000	1.026756  
437.000000	1.027264  
437.500000	1.003989  
438.000000	0.977317  
438.500000	0.954211  
439.000000	0.926365  
439.500000	0.903697  
440.000000	0.894388  
440.500000	0.885781  
441.000000	0.866479  
441.500000	0.845264  
442.000000	0.817015  
442.500000	0.807038  
443.000000	0.785482  
443.500000	0.753399  
444.000000	0.724072  
444.500000	0.701835  

