PE FL                   SPECTRUM    ASCII       PEDS        1.60        
  -1
PMAD01~1
23/10/10
17:00:41.00
23/10/10
17:00:41.00


444.500000
1









LS55
5.00
5.00
5.00
SCAN
1
20
100
100
0
500
0
2
0
1
7
ON
500 450 
1 0 0
#HDR
-1
-1
#GR
NM

0.00002384185791015625
0.0
300.000000
0.500000
290
8
88.834445
-3.178611
#DATA
300.000000	-2.600000 
300.500000	-2.142186 
301.000000	-1.685678 
301.500000	-1.336544 
302.000000	-1.358595 
302.500000	-1.169220 
303.000000	-1.264821 
303.500000	-1.364560 
304.000000	-1.389265 
304.500000	-1.575483 
305.000000	-1.664493 
305.500000	-1.695045 
306.000000	-1.381806 
306.500000	-1.059018 
307.000000	-0.465603 
307.500000	0.091899  
308.000000	0.420814  
308.500000	0.805365  
309.000000	0.886785  
309.500000	0.821330  
310.000000	0.420327  
310.500000	-0.196667 
311.000000	-0.764736 
311.500000	-1.203536 
312.000000	-1.577244 
312.500000	-1.958453 
313.000000	-2.170123 
313.500000	-2.243342 
314.000000	-2.104647 
314.500000	-1.840089 
315.000000	-1.717120 
315.500000	-1.376448 
316.000000	-0.914049 
316.500000	-0.637538 
317.000000	-0.588895 
317.500000	-0.589495 
318.000000	-0.761531 
318.500000	-0.989346 
319.000000	-1.103006 
319.500000	-1.237289 
320.000000	-1.217136 
320.500000	-1.001234 
321.000000	-1.036686 
321.500000	-1.300247 
322.000000	-1.358562 
322.500000	-1.510265 
323.000000	-1.756163 
323.500000	-2.083538 
324.000000	-2.349924 
324.500000	-2.548273 
325.000000	-2.521401 
325.500000	-2.556531 
326.000000	-2.888923 
326.500000	-3.075924 
327.000000	-3.178611 
327.500000	-3.105949 
328.000000	-3.000727 
328.500000	-2.805142 
329.000000	-2.578599 
329.500000	-2.170564 
330.000000	-1.683556 
330.500000	-1.356649 
331.000000	-1.178476 
331.500000	-1.168774 
332.000000	-1.326735 
332.500000	-1.401650 
333.000000	-1.476770 
333.500000	-1.561339 
334.000000	-1.426431 
334.500000	-0.944917 
335.000000	-0.245648 
335.500000	0.564389  
336.000000	1.448011  
336.500000	2.088020  
337.000000	2.717619  
337.500000	3.254341  
338.000000	3.784281  
338.500000	4.421147  
339.000000	5.463131  
339.500000	7.062617  
340.000000	9.351357  
340.500000	12.582460 
341.000000	16.264441 
341.500000	20.607080 
342.000000	25.723783 
342.500000	31.705410 
343.000000	38.400752 
343.500000	45.441438 
344.000000	52.655583 
344.500000	59.803529 
345.000000	67.021090 
345.500000	73.417909 
346.000000	78.783276 
346.500000	82.988160 
347.000000	86.091125 
347.500000	88.129986 
348.000000	88.834445 
348.500000	88.378031 
349.000000	86.742254 
349.500000	84.755494 
350.000000	82.010023 
350.500000	79.055792 
351.000000	75.989216 
351.500000	72.924556 
352.000000	70.176851 
352.500000	67.706619 
353.000000	65.482893 
353.500000	63.085456 
354.000000	60.983158 
354.500000	58.981690 
355.000000	57.528243 
355.500000	56.773308 
356.000000	56.339835 
356.500000	56.130082 
357.000000	56.154091 
357.500000	56.580220 
358.000000	56.744727 
358.500000	56.640396 
359.000000	56.365406 
359.500000	55.878284 
360.000000	55.625577 
360.500000	55.495532 
361.000000	55.443775 
361.500000	55.414147 
362.000000	55.831712 
362.500000	56.417198 
363.000000	56.869891 
363.500000	57.572963 
364.000000	58.059122 
364.500000	58.338859 
365.000000	58.589237 
365.500000	58.759432 
366.000000	58.518453 
366.500000	58.001767 
367.000000	57.313483 
367.500000	56.134712 
368.000000	54.988784 
368.500000	53.955890 
369.000000	52.816223 
369.500000	51.744970 
370.000000	51.272830 
370.500000	51.347079 
371.000000	51.590104 
371.500000	52.308502 
372.000000	53.002469 
372.500000	53.635646 
373.000000	54.353112 
373.500000	54.914213 
374.000000	55.113409 
374.500000	55.301966 
375.000000	56.201912 
375.500000	57.204758 
376.000000	58.597481 
376.500000	60.012633 
377.000000	61.138985 
377.500000	62.206996 
378.000000	62.904681 
378.500000	62.927506 
379.000000	62.275020 
379.500000	61.725727 
380.000000	60.979099 
380.500000	60.573256 
381.000000	60.244696 
381.500000	59.739414 
382.000000	59.401596 
382.500000	58.944267 
383.000000	58.257002 
383.500000	57.058470 
384.000000	55.642882 
384.500000	53.739979 
385.000000	52.058726 
385.500000	50.625758 
386.000000	49.236241 
386.500000	48.023511 
387.000000	46.772320 
387.500000	45.390486 
388.000000	44.007481 
388.500000	42.603043 
389.000000	40.691619 
389.500000	38.590762 
390.000000	36.413879 
390.500000	34.505162 
391.000000	32.670289 
391.500000	30.877708 
392.000000	28.999609 
392.500000	27.316811 
393.000000	25.969599 
393.500000	24.806357 
394.000000	23.792251 
394.500000	22.911760 
395.000000	22.524555 
395.500000	22.402567 
396.000000	22.488984 
396.500000	22.601332 
397.000000	22.667286 
397.500000	22.605999 
398.000000	22.401641 
398.500000	22.049354 
399.000000	21.493934 
399.500000	20.825616 
400.000000	19.931746 
400.500000	18.905557 
401.000000	18.011881 
401.500000	17.251311 
402.000000	16.550067 
402.500000	16.072633 
403.000000	15.815227 
403.500000	15.817802 
404.000000	15.876102 
404.500000	15.914042 
405.000000	15.716267 
405.500000	15.523408 
406.000000	15.160332 
406.500000	14.514171 
407.000000	13.811105 
407.500000	13.058594 
408.000000	12.413744 
408.500000	11.842682 
409.000000	11.422729 
409.500000	11.111590 
410.000000	11.008417 
410.500000	11.044672 
411.000000	11.057859 
411.500000	11.172196 
412.000000	11.282721 
412.500000	11.394890 
413.000000	11.478432 
413.500000	11.500753 
414.000000	11.520247 
414.500000	11.568663 
415.000000	11.666072 
415.500000	11.833449 
416.000000	12.142002 
416.500000	12.531555 
417.000000	12.953492 
417.500000	13.457110 
418.000000	13.934711 
418.500000	14.401452 
419.000000	14.759487 
419.500000	15.024713 
420.000000	15.278267 
420.500000	15.578480 
421.000000	15.841275 
421.500000	16.028981 
422.000000	16.260876 
422.500000	16.455252 
423.000000	16.776335 
423.500000	17.194288 
424.000000	17.612744 
424.500000	18.200998 
425.000000	19.073517 
425.500000	20.112662 
426.000000	21.159461 
426.500000	22.176053 
427.000000	22.948613 
427.500000	23.632024 
428.000000	24.153148 
428.500000	24.393914 
429.000000	24.562794 
429.500000	24.858731 
430.000000	25.385189 
430.500000	26.272018 
431.000000	27.667797 
431.500000	29.299527 
432.000000	31.196473 
432.500000	33.645340 
433.000000	36.248946 
433.500000	38.885803 
434.000000	41.387116 
434.500000	43.703677 
435.000000	45.733111 
435.500000	47.639937 
436.000000	49.077175 
436.500000	49.876063 
437.000000	50.553186 
437.500000	50.839242 
438.000000	50.975199 
438.500000	50.983934 
439.000000	50.999521 
439.500000	50.995603 
440.000000	51.575162 
440.500000	52.532085 
441.000000	53.591214 
441.500000	55.110812 
442.000000	56.696855 
442.500000	58.425881 
443.000000	60.210161 
443.500000	61.783588 
444.000000	62.665066 
444.500000	63.392232 

