PE FL                   SPECTRUM    ASCII       PEDS        1.60        
  -1
PM57D7~1
23/10/10
16:47:11.00
23/10/10
16:47:11.00


444.500000
1









LS55
25.00
5.00
5.00
SCAN
1
20
100
100
0
500
0
2
0
1
7
ON
500 450 
1 0 0
#HDR
-1
-1
#GR
NM

0.00002384185791015625
0.0
300.000000
0.500000
290
8
96.369783
-2.909846
#DATA
300.000000	0.000000  
300.500000	-1.179398 
301.000000	-2.130923 
301.500000	-2.623375 
302.000000	-2.606644 
302.500000	-2.504367 
303.000000	-1.925722 
303.500000	-0.974974 
304.000000	-0.058012 
304.500000	0.739407  
305.000000	1.180887  
305.500000	1.221891  
306.000000	0.827946  
306.500000	0.416618  
307.000000	-0.253997 
307.500000	-1.075367 
308.000000	-1.729943 
308.500000	-2.296209 
309.000000	-2.712393 
309.500000	-2.839995 
310.000000	-2.831801 
310.500000	-2.909846 
311.000000	-2.777455 
311.500000	-2.445049 
312.000000	-1.928247 
312.500000	-1.284068 
313.000000	-0.546190 
313.500000	0.072095  
314.000000	1.051400  
314.500000	2.069492  
315.000000	3.066028  
315.500000	3.977534  
316.000000	4.898512  
316.500000	5.932257  
317.000000	6.995362  
317.500000	8.013913  
318.000000	8.732363  
318.500000	9.565835  
319.000000	10.343860 
319.500000	11.082087 
320.000000	11.756451 
320.500000	12.469611 
321.000000	13.458181 
321.500000	14.433541 
322.000000	15.229397 
322.500000	16.054024 
323.000000	16.996394 
323.500000	17.722703 
324.000000	18.344315 
324.500000	18.587638 
325.000000	18.788508 
325.500000	19.226295 
326.000000	19.737710 
326.500000	20.148398 
327.000000	20.911315 
327.500000	22.022643 
328.000000	23.207588 
328.500000	24.486023 
329.000000	25.656726 
329.500000	26.431015 
330.000000	27.150850 
330.500000	27.694464 
331.000000	27.872224 
331.500000	27.882215 
332.000000	27.924415 
332.500000	28.090041 
333.000000	28.485860 
333.500000	29.406598 
334.000000	30.304656 
334.500000	31.691499 
335.000000	33.604468 
335.500000	36.227507 
336.000000	39.231055 
336.500000	42.450463 
337.000000	46.074485 
337.500000	50.095506 
338.000000	54.912323 
338.500000	59.827639 
339.000000	65.166605 
339.500000	70.783551 
340.000000	76.759656 
340.500000	82.596669 
341.000000	87.650958 
341.500000	91.561752 
342.000000	94.339574 
342.500000	96.068698 
343.000000	96.369783 
343.500000	95.673740 
344.000000	93.941790 
344.500000	91.682702 
345.000000	88.873950 
345.500000	85.738974 
346.000000	81.728235 
346.500000	76.965422 
347.000000	71.595791 
347.500000	65.588425 
348.000000	59.398378 
348.500000	53.239562 
349.000000	47.507580 
349.500000	42.176033 
350.000000	37.716599 
350.500000	33.743384 
351.000000	30.099388 
351.500000	26.700079 
352.000000	23.246268 
352.500000	19.861418 
353.000000	16.648477 
353.500000	13.810066 
354.000000	11.215471 
354.500000	9.434575  
355.000000	8.261480  
355.500000	7.596146  
356.000000	7.263610  
356.500000	6.986930  
357.000000	6.694124  
357.500000	6.314926  
358.000000	5.715047  
358.500000	4.882864  
359.000000	4.192582  
359.500000	3.603287  
360.000000	3.135569  
360.500000	2.855887  
361.000000	2.576369  
361.500000	2.420202  
362.000000	2.389078  
362.500000	2.339455  
363.000000	2.100343  
363.500000	1.955038  
364.000000	1.810610  
364.500000	1.630251  
365.000000	1.631777  
365.500000	1.580164  
366.000000	1.608473  
366.500000	1.796859  
367.000000	2.034625  
367.500000	2.149794  
368.000000	2.265341  
368.500000	2.313852  
369.000000	2.165316  
369.500000	2.018978  
370.000000	1.683884  
370.500000	1.254874  
371.000000	0.878786  
371.500000	0.551441  
372.000000	0.221067  
372.500000	0.037904  
373.000000	0.006239  
373.500000	0.069885  
374.000000	0.264040  
374.500000	0.484717  
375.000000	0.750936  
375.500000	1.025880  
376.000000	1.283339  
376.500000	1.425847  
377.000000	1.477853  
377.500000	1.451898  
378.000000	1.362328  
378.500000	1.233003  
379.000000	1.106028  
379.500000	1.083880  
380.000000	1.097525  
380.500000	1.139623  
381.000000	1.178969  
381.500000	1.186218  
382.000000	1.181794  
382.500000	1.164564  
383.000000	1.128776  
383.500000	1.069353  
384.000000	1.111623  
384.500000	1.125476  
385.000000	1.151824  
385.500000	1.147891  
386.000000	1.073186  
386.500000	0.995243  
387.000000	0.894231  
387.500000	0.849107  
388.000000	0.843498  
388.500000	0.925171  
389.000000	1.018319  
389.500000	1.157246  
390.000000	1.295170  
390.500000	1.343302  
391.000000	1.342993  
391.500000	1.282372  
392.000000	1.246203  
392.500000	1.202758  
393.000000	1.181339  
393.500000	1.176815  
394.000000	1.197747  
394.500000	1.249281  
395.000000	1.244335  
395.500000	1.240421  
396.000000	1.213089  
396.500000	1.199816  
397.000000	1.211532  
397.500000	1.230324  
398.000000	1.280302  
398.500000	1.348261  
399.000000	1.442064  
399.500000	1.469030  
400.000000	1.493932  
400.500000	1.508513  
401.000000	1.487421  
401.500000	1.443573  
402.000000	1.366474  
402.500000	1.283113  
403.000000	1.199197  
403.500000	1.149637  
404.000000	1.095807  
404.500000	1.057217  
405.000000	1.078854  
405.500000	1.145813  
406.000000	1.268982  
406.500000	1.398768  
407.000000	1.480893  
407.500000	1.510868  
408.000000	1.515527  
408.500000	1.480035  
409.000000	1.356105  
409.500000	1.203259  
410.000000	1.117597  
410.500000	1.113858  
411.000000	1.177741  
411.500000	1.271878  
412.000000	1.351788  
412.500000	1.421007  
413.000000	1.498711  
413.500000	1.509735  
414.000000	1.432332  
414.500000	1.324157  
415.000000	1.238714  
415.500000	1.187267  
416.000000	1.155513  
416.500000	1.132220  
417.000000	1.128084  
417.500000	1.161739  
418.000000	1.220941  
418.500000	1.271625  
419.000000	1.272715  
419.500000	1.239615  
420.000000	1.223351  
420.500000	1.208015  
421.000000	1.176597  
421.500000	1.120801  
422.000000	1.087238  
422.500000	1.058308  
423.000000	1.056891  
423.500000	1.035271  
424.000000	0.979173  
424.500000	0.937795  
425.000000	0.897026  
425.500000	0.845415  
426.000000	0.766178  
426.500000	0.719209  
427.000000	0.680105  
427.500000	0.668421  
428.000000	0.674520  
428.500000	0.676751  
429.000000	0.709461  
429.500000	0.757866  
430.000000	0.811198  
430.500000	0.833631  
431.000000	0.865006  
431.500000	0.890237  
432.000000	0.934990  
432.500000	0.984838  
433.000000	1.013444  
433.500000	1.041007  
434.000000	1.056618  
434.500000	1.055085  
435.000000	1.028762  
435.500000	0.992942  
436.000000	0.936843  
436.500000	0.910890  
437.000000	0.908095  
437.500000	0.915964  
438.000000	0.937947  
438.500000	0.973897  
439.000000	1.002783  
439.500000	1.024624  
440.000000	1.050414  
440.500000	1.058871  
441.000000	1.059058  
441.500000	1.053553  
442.000000	1.038173  
442.500000	1.001292  
443.000000	0.967743  
443.500000	0.911510  
444.000000	0.836028  
444.500000	0.757799  

