PE FL                   SPECTRUM    ASCII       PEDS        1.60        
  -1
PM17D7~1
23/10/10
16:44:54.00
23/10/10
16:44:54.00


444.500000
1









LS55
5.00
5.00
5.00
SCAN
1
20
100
100
0
500
0
2
0
1
7
ON
500 450 
1 0 0
#HDR
-1
-1
#GR
NM

0.00002384185791015625
0.0
300.000000
0.500000
290
8
82.439337
-3.136447
#DATA
300.000000	2.600000  
300.500000	0.942979  
301.000000	-0.398937 
301.500000	-1.583183 
302.000000	-2.614612 
302.500000	-3.060653 
303.000000	-3.136447 
303.500000	-2.581053 
304.000000	-1.442200 
304.500000	-0.100987 
305.000000	0.925037  
305.500000	1.826527  
306.000000	2.322102  
306.500000	2.166291  
307.000000	1.686976  
307.500000	0.842869  
308.000000	0.003470  
308.500000	-0.462536 
309.000000	-0.630812 
309.500000	-0.741121 
310.000000	-0.606803 
310.500000	-0.379613 
311.000000	-0.427332 
311.500000	-0.696856 
312.000000	-1.210467 
312.500000	-1.866544 
313.000000	-2.341671 
313.500000	-2.662666 
314.000000	-2.848133 
314.500000	-2.698682 
315.000000	-2.240113 
315.500000	-1.841706 
316.000000	-1.518903 
316.500000	-1.400471 
317.000000	-1.543751 
317.500000	-1.713264 
318.000000	-2.069878 
318.500000	-2.505145 
319.000000	-2.764897 
319.500000	-2.709744 
320.000000	-2.561157 
320.500000	-2.200651 
321.000000	-1.700745 
321.500000	-1.251346 
322.000000	-0.839155 
322.500000	-0.469775 
323.000000	-0.270754 
323.500000	-0.194991 
324.000000	-0.240013 
324.500000	-0.379548 
325.000000	-0.600143 
325.500000	-0.782285 
326.000000	-1.042779 
326.500000	-1.289582 
327.000000	-1.414880 
327.500000	-1.416638 
328.000000	-1.321233 
328.500000	-1.337559 
329.000000	-1.310866 
329.500000	-1.335645 
330.000000	-1.414181 
330.500000	-1.436958 
331.000000	-1.416793 
331.500000	-1.199741 
332.000000	-0.836288 
332.500000	-0.222081 
333.000000	0.445711  
333.500000	1.311724  
334.000000	2.376299  
334.500000	3.292699  
335.000000	4.221819  
335.500000	5.331639  
336.000000	6.553890  
336.500000	7.992870  
337.000000	9.800943  
337.500000	12.351327 
338.000000	15.613532 
338.500000	19.633851 
339.000000	23.898396 
339.500000	28.514965 
340.000000	33.626953 
340.500000	39.003210 
341.000000	44.629653 
341.500000	50.208876 
342.000000	56.085746 
342.500000	62.028444 
343.000000	67.722000 
343.500000	72.584723 
344.000000	76.609887 
344.500000	79.667375 
345.000000	81.568918 
345.500000	82.439337 
346.000000	82.264066 
346.500000	81.477151 
347.000000	80.259727 
347.500000	78.561933 
348.000000	76.151602 
348.500000	73.452691 
349.000000	70.408176 
349.500000	67.358795 
350.000000	64.243874 
350.500000	61.435012 
351.000000	59.092334 
351.500000	57.504964 
352.000000	56.428256 
352.500000	55.821784 
353.000000	55.603688 
353.500000	55.337174 
354.000000	55.250932 
354.500000	55.369030 
355.000000	55.816997 
355.500000	56.793386 
356.000000	58.346216 
356.500000	60.167235 
357.000000	62.169514 
357.500000	64.435134 
358.000000	66.463209 
358.500000	68.277398 
359.000000	69.767991 
359.500000	70.553574 
360.000000	71.164376 
360.500000	71.696176 
361.000000	72.158540 
361.500000	72.557015 
362.000000	73.196328 
362.500000	73.670022 
363.000000	74.087119 
363.500000	74.203313 
364.000000	73.735596 
364.500000	73.079200 
365.000000	72.306081 
365.500000	71.741333 
366.000000	71.177911 
366.500000	70.759787 
367.000000	70.424969 
367.500000	70.245227 
368.000000	69.854887 
368.500000	69.199482 
369.000000	68.165529 
369.500000	67.104505 
370.000000	66.034907 
370.500000	65.129218 
371.000000	64.482722 
371.500000	64.482818 
372.000000	65.062940 
372.500000	65.549711 
373.000000	66.080382 
373.500000	66.366388 
374.000000	66.773582 
374.500000	67.252398 
375.000000	68.194838 
375.500000	69.195930 
376.000000	70.664787 
376.500000	72.374751 
377.000000	73.655177 
377.500000	74.851363 
378.000000	75.548841 
378.500000	75.683467 
379.000000	74.843893 
379.500000	73.523799 
380.000000	72.030044 
380.500000	70.882918 
381.000000	70.144238 
381.500000	69.465368 
382.000000	69.286220 
382.500000	69.672129 
383.000000	70.316390 
383.500000	70.518820 
384.000000	69.944983 
384.500000	68.797022 
385.000000	67.521690 
385.500000	65.953119 
386.000000	64.110331 
386.500000	62.159579 
387.000000	60.165099 
387.500000	58.428486 
388.000000	56.956507 
388.500000	55.206609 
389.000000	53.076516 
389.500000	50.673729 
390.000000	47.901160 
390.500000	45.136012 
391.000000	42.359032 
391.500000	39.524239 
392.000000	36.798517 
392.500000	34.512108 
393.000000	32.766588 
393.500000	31.480295 
394.000000	30.701610 
394.500000	30.099718 
395.000000	29.892258 
395.500000	29.958323 
396.000000	30.112851 
396.500000	30.066652 
397.000000	29.951212 
397.500000	29.721384 
398.000000	29.207219 
398.500000	28.606564 
399.000000	27.691301 
399.500000	26.545305 
400.000000	25.213488 
400.500000	24.002698 
401.000000	22.911995 
401.500000	22.167223 
402.000000	21.749163 
402.500000	21.425694 
403.000000	21.324015 
403.500000	21.300420 
404.000000	21.270613 
404.500000	21.057343 
405.000000	20.658942 
405.500000	20.108984 
406.000000	19.446819 
406.500000	18.752890 
407.000000	17.922700 
407.500000	16.991457 
408.000000	16.134402 
408.500000	15.363761 
409.000000	14.651554 
409.500000	14.006502 
410.000000	13.633050 
410.500000	13.423441 
411.000000	13.413782 
411.500000	13.497127 
412.000000	13.598193 
412.500000	13.738838 
413.000000	13.953884 
413.500000	14.121998 
414.000000	14.168207 
414.500000	14.167081 
415.000000	14.174537 
415.500000	14.292388 
416.000000	14.606482 
416.500000	15.026098 
417.000000	15.526016 
417.500000	16.316859 
418.000000	17.327107 
418.500000	18.287809 
419.000000	18.967036 
419.500000	19.362122 
420.000000	19.678284 
420.500000	19.972317 
421.000000	20.129816 
421.500000	20.080223 
422.000000	20.219656 
422.500000	20.583239 
423.000000	21.232503 
423.500000	21.930040 
424.000000	22.527150 
424.500000	23.272315 
425.000000	24.280898 
425.500000	25.402169 
426.000000	26.318983 
426.500000	27.085660 
427.000000	27.606363 
427.500000	28.122923 
428.000000	28.543888 
428.500000	28.683546 
429.000000	28.897917 
429.500000	29.357705 
430.000000	30.165791 
430.500000	31.393407 
431.000000	33.172717 
431.500000	35.221947 
432.000000	37.666067 
432.500000	40.684445 
433.000000	43.896402 
433.500000	47.110271 
434.000000	50.179922 
434.500000	52.999772 
435.000000	55.445384 
435.500000	57.605252 
436.000000	59.181702 
436.500000	60.035414 
437.000000	60.586051 
437.500000	60.921045 
438.000000	61.091123 
438.500000	61.067542 
439.000000	61.035353 
439.500000	61.071487 
440.000000	61.731431 
440.500000	62.789816 
441.000000	64.089033 
441.500000	65.754652 
442.000000	67.808095 
442.500000	70.104718 
443.000000	72.415176 
443.500000	74.460757 
444.000000	75.878114 
444.500000	77.199975 

