PE FL                   SPECTRUM    ASCII       PEDS        1.60        
  -1
PM7BC7~1
23/10/09
18:55:30.00
23/10/09
18:55:30.00


594.500000
1









LS55
140.00
10.00
10.00
SCAN
1
20
100
100
0
800
0
2
0
1
7
ON
800 600 
1 0 0
#HDR
-1
-1
#GR
NM

0.00002384185791015625
0.0
300.000000
0.500000
590
8
42.944609
1.831273
#DATA
300.000000	32.767999 
300.500000	35.545862 
301.000000	37.811909 
301.500000	39.531598 
302.000000	40.662616 
302.500000	41.762303 
303.000000	42.121787 
303.500000	41.832678 
304.000000	41.124582 
304.500000	40.154778 
305.000000	39.083306 
305.500000	37.456670 
306.000000	35.579895 
306.500000	33.601622 
307.000000	32.253925 
307.500000	31.490674 
308.000000	31.210734 
308.500000	31.376570 
309.000000	31.709363 
309.500000	32.263169 
310.000000	32.831476 
310.500000	33.144214 
311.000000	33.093437 
311.500000	32.937898 
312.000000	32.829124 
312.500000	32.628471 
313.000000	32.400688 
313.500000	32.128709 
314.000000	31.763565 
314.500000	31.330860 
315.000000	30.665254 
315.500000	29.710438 
316.000000	29.018975 
316.500000	28.405923 
317.000000	27.890022 
317.500000	27.602633 
318.000000	27.576964 
318.500000	27.564858 
319.000000	27.680438 
319.500000	27.645488 
320.000000	27.443793 
320.500000	27.297425 
321.000000	27.058320 
321.500000	26.490904 
322.000000	25.829328 
322.500000	25.221124 
323.000000	24.935081 
323.500000	24.760065 
324.000000	24.649029 
324.500000	24.530826 
325.000000	24.633958 
325.500000	24.662543 
326.000000	24.535314 
326.500000	24.212714 
327.000000	23.922344 
327.500000	24.015639 
328.000000	24.300965 
328.500000	24.888946 
329.000000	25.746424 
329.500000	26.999207 
330.000000	28.289263 
330.500000	29.767201 
331.000000	31.089610 
331.500000	32.370775 
332.000000	33.946826 
332.500000	35.512703 
333.000000	37.159818 
333.500000	38.740704 
334.000000	40.384441 
334.500000	41.808912 
335.000000	42.756556 
335.500000	42.944609 
336.000000	42.444611 
336.500000	41.786684 
337.000000	40.791929 
337.500000	39.600111 
338.000000	38.300299 
338.500000	37.423839 
339.000000	37.124129 
339.500000	36.988085 
340.000000	37.160885 
340.500000	37.207781 
341.000000	37.261443 
341.500000	37.112162 
342.000000	36.306984 
342.500000	34.420416 
343.000000	32.200455 
343.500000	30.036637 
344.000000	27.745210 
344.500000	25.835833 
345.000000	24.197105 
345.500000	22.914859 
346.000000	22.005739 
346.500000	21.394659 
347.000000	20.542991 
347.500000	19.982020 
348.000000	19.612468 
348.500000	19.052017 
349.000000	18.572168 
349.500000	18.281284 
350.000000	18.022211 
350.500000	17.674836 
351.000000	17.305752 
351.500000	16.595922 
352.000000	15.895552 
352.500000	15.296913 
353.000000	14.708326 
353.500000	14.213249 
354.000000	13.942728 
354.500000	13.941234 
355.000000	14.020762 
355.500000	14.075958 
356.000000	14.048620 
356.500000	13.934454 
357.000000	13.827015 
357.500000	13.705227 
358.000000	13.521843 
358.500000	13.226416 
359.000000	12.832089 
359.500000	12.455446 
360.000000	12.185725 
360.500000	12.052842 
361.000000	11.985216 
361.500000	11.962340 
362.000000	12.035863 
362.500000	12.204233 
363.000000	12.400146 
363.500000	12.545595 
364.000000	12.579617 
364.500000	12.522045 
365.000000	12.396287 
365.500000	12.171575 
366.000000	11.903984 
366.500000	11.610788 
367.000000	11.367140 
367.500000	11.135404 
368.000000	10.996050 
368.500000	10.899253 
369.000000	10.793308 
369.500000	10.697649 
370.000000	10.615835 
370.500000	10.640811 
371.000000	10.699962 
371.500000	10.839158 
372.000000	10.939570 
372.500000	11.039725 
373.000000	11.127409 
373.500000	11.075774 
374.000000	11.068854 
374.500000	10.986165 
375.000000	10.916395 
375.500000	10.806683 
376.000000	10.709843 
376.500000	10.586318 
377.000000	10.490581 
377.500000	10.385658 
378.000000	10.036698 
378.500000	9.847560  
379.000000	9.642427  
379.500000	9.490741  
380.000000	9.353142  
380.500000	9.224260  
381.000000	9.203343  
381.500000	9.336568  
382.000000	9.501027  
382.500000	9.514021  
383.000000	9.670820  
383.500000	9.809133  
384.000000	9.878240  
384.500000	9.873147  
385.000000	9.738118  
385.500000	9.614618  
386.000000	9.500008  
386.500000	9.381741  
387.000000	9.323239  
387.500000	9.413780  
388.000000	9.575292  
388.500000	9.721197  
389.000000	9.814067  
389.500000	9.810598  
390.000000	9.865399  
390.500000	9.812180  
391.000000	9.527664  
391.500000	9.358435  
392.000000	9.271072  
392.500000	9.208846  
393.000000	9.137723  
393.500000	9.054556  
394.000000	9.035309  
394.500000	9.152872  
395.000000	9.147509  
395.500000	8.952769  
396.000000	8.759635  
396.500000	8.602373  
397.000000	8.413640  
397.500000	8.295031  
398.000000	8.124041  
398.500000	8.040836  
399.000000	8.036241  
399.500000	7.996960  
400.000000	7.892863  
400.500000	7.841195  
401.000000	7.826708  
401.500000	7.849237  
402.000000	8.033416  
402.500000	8.192675  
403.000000	8.464738  
403.500000	8.761834  
404.000000	8.957240  
404.500000	9.121502  
405.000000	9.228144  
405.500000	9.217688  
406.000000	9.107601  
406.500000	9.040602  
407.000000	8.959020  
407.500000	8.908603  
408.000000	8.874605  
408.500000	8.833391  
409.000000	8.850911  
409.500000	8.861553  
410.000000	8.777694  
410.500000	8.648845  
411.000000	8.480234  
411.500000	8.213559  
412.000000	7.841392  
412.500000	7.370636  
413.000000	6.899513  
413.500000	6.565335  
414.000000	6.392792  
414.500000	6.375807  
415.000000	6.571744  
415.500000	6.958688  
416.000000	7.356031  
416.500000	7.657899  
417.000000	7.770167  
417.500000	7.721711  
418.000000	7.492825  
418.500000	7.182704  
419.000000	6.754221  
419.500000	6.351133  
420.000000	6.174024  
420.500000	6.107896  
421.000000	6.131459  
421.500000	6.193338  
422.000000	6.294606  
422.500000	6.250090  
423.000000	6.184124  
423.500000	6.024262  
424.000000	5.750143  
424.500000	5.527592  
425.000000	5.332604  
425.500000	5.174943  
426.000000	5.090798  
426.500000	5.093802  
427.000000	5.062348  
427.500000	5.122260  
428.000000	5.210778  
428.500000	5.245745  
429.000000	5.320567  
429.500000	5.381108  
430.000000	5.417250  
430.500000	5.450673  
431.000000	5.496516  
431.500000	5.465013  
432.000000	5.380362  
432.500000	5.236503  
433.000000	5.009933  
433.500000	4.800407  
434.000000	4.593623  
434.500000	4.414103  
435.000000	4.238843  
435.500000	4.111814  
436.000000	4.001996  
436.500000	3.956318  
437.000000	3.943586  
437.500000	3.920404  
438.000000	3.948324  
438.500000	4.012844  
439.000000	4.102660  
439.500000	4.168876  
440.000000	4.217838  
440.500000	4.191521  
441.000000	4.162504  
441.500000	4.098734  
442.000000	4.041691  
442.500000	3.989728  
443.000000	3.916184  
443.500000	3.886542  
444.000000	3.873053  
444.500000	3.873251  
445.000000	3.854699  
445.500000	3.872494  
446.000000	3.847318  
446.500000	3.841829  
447.000000	3.823598  
447.500000	3.754445  
448.000000	3.662953  
448.500000	3.536381  
449.000000	3.387662  
449.500000	3.258611  
450.000000	3.203374  
450.500000	3.130630  
451.000000	3.101935  
451.500000	3.111769  
452.000000	3.118680  
452.500000	3.134175  
453.000000	3.112592  
453.500000	3.059319  
454.000000	3.007685  
454.500000	3.010775  
455.000000	3.014927  
455.500000	3.066870  
456.000000	3.141214  
456.500000	3.259485  
457.000000	3.370800  
457.500000	3.454080  
458.000000	3.508490  
458.500000	3.488672  
459.000000	3.456948  
459.500000	3.363672  
460.000000	3.250255  
460.500000	3.143932  
461.000000	3.062419  
461.500000	2.974617  
462.000000	2.907397  
462.500000	2.843472  
463.000000	2.754936  
463.500000	2.692982  
464.000000	2.636981  
464.500000	2.613853  
465.000000	2.630268  
465.500000	2.671712  
466.000000	2.748832  
466.500000	2.865978  
467.000000	2.949238  
467.500000	2.974167  
468.000000	2.952818  
468.500000	2.904554  
469.000000	2.841015  
469.500000	2.789787  
470.000000	2.676710  
470.500000	2.609913  
471.000000	2.640411  
471.500000	2.694530  
472.000000	2.756219  
472.500000	2.823714  
473.000000	2.892106  
473.500000	2.954823  
474.000000	3.001552  
474.500000	2.925766  
475.000000	2.805542  
475.500000	2.699301  
476.000000	2.594431  
476.500000	2.464233  
477.000000	2.336614  
477.500000	2.242939  
478.000000	2.192825  
478.500000	2.199813  
479.000000	2.196123  
479.500000	2.164334  
480.000000	2.167210  
480.500000	2.211994  
481.000000	2.245566  
481.500000	2.269704  
482.000000	2.292747  
482.500000	2.325235  
483.000000	2.350866  
483.500000	2.360069  
484.000000	2.348001  
484.500000	2.334672  
485.000000	2.333743  
485.500000	2.318699  
486.000000	2.299235  
486.500000	2.285356  
487.000000	2.298839  
487.500000	2.323437  
488.000000	2.345872  
488.500000	2.380943  
489.000000	2.412124  
489.500000	2.442751  
490.000000	2.439635  
490.500000	2.398943  
491.000000	2.339611  
491.500000	2.293977  
492.000000	2.245817  
492.500000	2.193801  
493.000000	2.166754  
493.500000	2.155877  
494.000000	2.186569  
494.500000	2.242317  
495.000000	2.277263  
495.500000	2.313138  
496.000000	2.349463  
496.500000	2.366489  
497.000000	2.383108  
497.500000	2.379893  
498.000000	2.337336  
498.500000	2.304092  
499.000000	2.287723  
499.500000	2.252974  
500.000000	2.241038  
500.500000	2.247332  
501.000000	2.255848  
501.500000	2.288569  
502.000000	2.324847  
502.500000	2.333068  
503.000000	2.347525  
503.500000	2.363455  
504.000000	2.358101  
504.500000	2.350592  
505.000000	2.341069  
505.500000	2.305598  
506.000000	2.270049  
506.500000	2.242240  
507.000000	2.198503  
507.500000	2.164707  
508.000000	2.149087  
508.500000	2.147398  
509.000000	2.152745  
509.500000	2.167065  
510.000000	2.178157  
510.500000	2.173399  
511.000000	2.176478  
511.500000	2.155100  
512.000000	2.116562  
512.500000	2.081013  
513.000000	2.061152  
513.500000	2.050201  
514.000000	2.040339  
514.500000	2.066941  
515.000000	2.076530  
515.500000	2.110656  
516.000000	2.147376  
516.500000	2.165753  
517.000000	2.184048  
517.500000	2.210265  
518.000000	2.209349  
518.500000	2.190994  
519.000000	2.208199  
519.500000	2.199834  
520.000000	2.200747  
520.500000	2.210162  
521.000000	2.208434  
521.500000	2.207663  
522.000000	2.223612  
522.500000	2.204658  
523.000000	2.170130  
523.500000	2.151864  
524.000000	2.122705  
524.500000	2.092376  
525.000000	2.068253  
525.500000	2.031742  
526.000000	2.008142  
526.500000	2.010130  
527.000000	2.007819  
527.500000	2.023679  
528.000000	2.053511  
528.500000	2.087750  
529.000000	2.125249  
529.500000	2.167729  
530.000000	2.191047  
530.500000	2.207723  
531.000000	2.196029  
531.500000	2.157464  
532.000000	2.110887  
532.500000	2.060352  
533.000000	2.016721  
533.500000	1.975840  
534.000000	1.958073  
534.500000	1.957105  
535.000000	1.970397  
535.500000	1.991761  
536.000000	2.006434  
536.500000	2.011503  
537.000000	2.023552  
537.500000	2.049497  
538.000000	2.067956  
538.500000	2.086753  
539.000000	2.115104  
539.500000	2.132615  
540.000000	2.152606  
540.500000	2.165400  
541.000000	2.151348  
541.500000	2.123429  
542.000000	2.099491  
542.500000	2.073747  
543.000000	2.042707  
543.500000	2.019233  
544.000000	2.000123  
544.500000	2.003944  
545.000000	2.032443  
545.500000	2.058319  
546.000000	2.074344  
546.500000	2.090139  
547.000000	2.113287  
547.500000	2.137012  
548.000000	2.147208  
548.500000	2.145765  
549.000000	2.146872  
549.500000	2.156364  
550.000000	2.175682  
550.500000	2.172940  
551.000000	2.156086  
551.500000	2.130702  
552.000000	2.113782  
552.500000	2.092627  
553.000000	2.069899  
553.500000	2.056132  
554.000000	2.056700  
554.500000	2.081949  
555.000000	2.098339  
555.500000	2.104532  
556.000000	2.093641  
556.500000	2.079080  
557.000000	2.061451  
557.500000	2.047243  
558.000000	2.042164  
558.500000	2.037989  
559.000000	2.044828  
559.500000	2.048154  
560.000000	2.047439  
560.500000	2.029016  
561.000000	1.996743  
561.500000	1.955207  
562.000000	1.907378  
562.500000	1.881885  
563.000000	1.866666  
563.500000	1.855516  
564.000000	1.849756  
564.500000	1.856613  
565.000000	1.864520  
565.500000	1.867808  
566.000000	1.874313  
566.500000	1.865783  
567.000000	1.870904  
567.500000	1.876201  
568.000000	1.874537  
568.500000	1.866875  
569.000000	1.858496  
569.500000	1.852528  
570.000000	1.838884  
570.500000	1.837503  
571.000000	1.831273  
571.500000	1.836115  
572.000000	1.844657  
572.500000	1.852620  
573.000000	1.860179  
573.500000	1.859664  
574.000000	1.860362  
574.500000	1.853771  
575.000000	1.856356  
575.500000	1.863020  
576.000000	1.880985  
576.500000	1.904808  
577.000000	1.936464  
577.500000	1.975766  
578.000000	2.011674  
578.500000	2.040115  
579.000000	2.044482  
579.500000	2.034937  
580.000000	2.008975  
580.500000	1.977439  
581.000000	1.939250  
581.500000	1.911169  
582.000000	1.882231  
582.500000	1.867528  
583.000000	1.869316  
583.500000	1.869325  
584.000000	1.875178  
584.500000	1.883653  
585.000000	1.891681  
585.500000	1.902290  
586.000000	1.925032  
586.500000	1.934784  
587.000000	1.945859  
587.500000	1.980765  
588.000000	2.023055  
588.500000	2.052523  
589.000000	2.075828  
589.500000	2.074610  
590.000000	2.062520  
590.500000	2.058089  
591.000000	2.026707  
591.500000	1.979868  
592.000000	1.944918  
592.500000	1.930251  
593.000000	1.917981  
593.500000	1.922817  
594.000000	1.944454  
594.500000	1.983466  

