PE FL                   SPECTRUM    ASCII       PEDS        1.60        
  -1
PM4BC7~1
23/10/09
18:53:43.00
23/10/09
18:53:43.00


594.500000
1









LS55
80.00
10.00
10.00
SCAN
1
20
100
100
0
800
0
2
0
1
7
ON
800 600 
1 0 0
#HDR
-1
-1
#GR
NM

0.00002384185791015625
0.0
300.000000
0.500000
590
8
349.534340
1.434038
#DATA
300.000000	316.824000 
300.500000	324.526350 
301.000000	330.254988 
301.500000	333.080592 
302.000000	332.135901 
302.500000	327.309165 
303.000000	320.667388 
303.500000	314.808579 
304.000000	310.717907 
304.500000	308.106404 
305.000000	307.092171 
305.500000	305.120159 
306.000000	302.910669 
306.500000	299.394666 
307.000000	294.215686 
307.500000	287.178551 
308.000000	280.293204 
308.500000	273.819217 
309.000000	267.787186 
309.500000	263.008606 
310.000000	258.052486 
310.500000	254.001171 
311.000000	250.438456 
311.500000	247.893063 
312.000000	244.798296 
312.500000	242.231492 
313.000000	239.485582 
313.500000	237.029574 
314.000000	234.519786 
314.500000	231.830236 
315.000000	228.681677 
315.500000	224.818492 
316.000000	221.372257 
316.500000	217.377874 
317.000000	213.498602 
317.500000	209.522522 
318.000000	205.610326 
318.500000	199.757955 
319.000000	193.656227 
319.500000	186.992845 
320.000000	180.525371 
320.500000	175.450463 
321.000000	171.205060 
321.500000	168.360557 
322.000000	168.068037 
322.500000	170.123359 
323.000000	172.081326 
323.500000	174.415384 
324.000000	176.573380 
324.500000	178.629936 
325.000000	181.075886 
325.500000	183.052219 
326.000000	185.432780 
326.500000	189.709987 
327.000000	196.230315 
327.500000	203.932772 
328.000000	213.044505 
328.500000	224.201738 
329.000000	237.111549 
329.500000	251.701192 
330.000000	265.941292 
330.500000	279.665698 
331.000000	293.165838 
331.500000	305.867994 
332.000000	317.330517 
332.500000	327.189185 
333.000000	335.382872 
333.500000	341.478817 
334.000000	346.350517 
334.500000	349.078490 
335.000000	349.534340 
335.500000	347.950542 
336.000000	344.884341 
336.500000	340.479909 
337.000000	334.925566 
337.500000	327.973960 
338.000000	319.010087 
338.500000	308.762569 
339.000000	297.841216 
339.500000	285.090173 
340.000000	270.730657 
340.500000	255.006171 
341.000000	238.634778 
341.500000	222.511638 
342.000000	206.981091 
342.500000	191.696111 
343.000000	176.254638 
343.500000	162.011951 
344.000000	148.204284 
344.500000	134.696640 
345.000000	121.393806 
345.500000	108.527243 
346.000000	96.312969  
346.500000	85.142958  
347.000000	75.649569  
347.500000	66.962263  
348.000000	59.920301  
348.500000	53.870092  
349.000000	48.830897  
349.500000	44.383612  
350.000000	40.285286  
350.500000	36.449862  
351.000000	32.529940  
351.500000	29.233647  
352.000000	26.477334  
352.500000	24.375836  
353.000000	22.518438  
353.500000	20.939321  
354.000000	19.646426  
354.500000	18.520137  
355.000000	17.841460  
355.500000	16.942907  
356.000000	15.857003  
356.500000	14.810160  
357.000000	14.122047  
357.500000	13.405963  
358.000000	12.691968  
358.500000	12.176236  
359.000000	11.753652  
359.500000	11.709579  
360.000000	11.783761  
360.500000	11.782767  
361.000000	11.741985  
361.500000	11.748376  
362.000000	11.723728  
362.500000	11.641607  
363.000000	11.591483  
363.500000	11.579971  
364.000000	11.518457  
364.500000	11.479210  
365.000000	11.538495  
365.500000	11.674630  
366.000000	11.822895  
366.500000	11.971272  
367.000000	12.092750  
367.500000	12.130015  
368.000000	12.100194  
368.500000	11.918578  
369.000000	11.515894  
369.500000	10.963568  
370.000000	10.367542  
370.500000	9.824874   
371.000000	9.452931   
371.500000	9.209431   
372.000000	9.156589   
372.500000	9.333814   
373.000000	9.690793   
373.500000	9.963402   
374.000000	10.176081  
374.500000	10.177191  
375.000000	10.040889  
375.500000	9.934181   
376.000000	9.861017   
376.500000	9.839093   
377.000000	9.907891   
377.500000	10.179377  
378.000000	10.490564  
378.500000	10.786952  
379.000000	10.795443  
379.500000	10.542356  
380.000000	10.145493  
380.500000	9.707457   
381.000000	9.255269   
381.500000	8.938112   
382.000000	8.839211   
382.500000	8.848443   
383.000000	8.979666   
383.500000	9.048751   
384.000000	8.954256   
384.500000	8.764265   
385.000000	8.562843   
385.500000	8.324438   
386.000000	8.144909   
386.500000	8.077064   
387.000000	8.085647   
387.500000	8.143283   
388.000000	8.203368   
388.500000	8.191276   
389.000000	8.174850   
389.500000	8.159101   
390.000000	8.090789   
390.500000	8.003714   
391.000000	7.926981   
391.500000	7.805583   
392.000000	7.662438   
392.500000	7.522313   
393.000000	7.341319   
393.500000	7.166539   
394.000000	7.047821   
394.500000	7.003399   
395.000000	6.990668   
395.500000	6.934182   
396.000000	6.852733   
396.500000	6.762206   
397.000000	6.650196   
397.500000	6.461727   
398.000000	6.268763   
398.500000	6.142100   
399.000000	6.143791   
399.500000	6.267881   
400.000000	6.402686   
400.500000	6.521187   
401.000000	6.662088   
401.500000	6.778881   
402.000000	6.762765   
402.500000	6.632912   
403.000000	6.418699   
403.500000	6.221117   
404.000000	6.115244   
404.500000	6.068796   
405.000000	6.053445   
405.500000	6.142854   
406.000000	6.303317   
406.500000	6.468400   
407.000000	6.575552   
407.500000	6.555024   
408.000000	6.419973   
408.500000	6.288888   
409.000000	6.167490   
409.500000	6.042594   
410.000000	6.013109   
410.500000	6.031456   
411.000000	6.155237   
411.500000	6.337165   
412.000000	6.461724   
412.500000	6.472221   
413.000000	6.407485   
413.500000	6.301173   
414.000000	6.081066   
414.500000	5.899099   
415.000000	5.648436   
415.500000	5.414969   
416.000000	5.268292   
416.500000	5.173206   
417.000000	5.139742   
417.500000	5.130518   
418.000000	5.150561   
418.500000	5.144969   
419.000000	5.221352   
419.500000	5.265021   
420.000000	5.220990   
420.500000	5.138156   
421.000000	4.977823   
421.500000	4.807719   
422.000000	4.641049   
422.500000	4.423640   
423.000000	4.262354   
423.500000	4.218600   
424.000000	4.293691   
424.500000	4.416866   
425.000000	4.564805   
425.500000	4.704647   
426.000000	4.820857   
426.500000	4.959387   
427.000000	4.978792   
427.500000	4.996900   
428.000000	4.966480   
428.500000	4.947635   
429.000000	4.942366   
429.500000	4.941121   
430.000000	4.936373   
430.500000	4.887075   
431.000000	4.914911   
431.500000	4.917547   
432.000000	4.945054   
432.500000	4.998651   
433.000000	5.095412   
433.500000	5.196010   
434.000000	5.288829   
434.500000	5.369316   
435.000000	5.332463   
435.500000	5.311863   
436.000000	5.301369   
436.500000	5.306958   
437.000000	5.358789   
437.500000	5.481382   
438.000000	5.649822   
438.500000	5.819370   
439.000000	6.011955   
439.500000	6.047956   
440.000000	6.010447   
440.500000	5.897914   
441.000000	5.714715   
441.500000	5.517543   
442.000000	5.364154   
442.500000	5.268000   
443.000000	5.241750   
443.500000	5.393413   
444.000000	5.557440   
444.500000	5.716088   
445.000000	5.858134   
445.500000	5.978478   
446.000000	6.080845   
446.500000	6.107887   
447.000000	6.049327   
447.500000	5.938672   
448.000000	5.852036   
448.500000	5.767292   
449.000000	5.694173   
449.500000	5.633959   
450.000000	5.568855   
450.500000	5.623540   
451.000000	5.724996   
451.500000	5.798882   
452.000000	5.851112   
452.500000	5.894966   
453.000000	5.976004   
453.500000	6.067364   
454.000000	6.132251   
454.500000	6.139568   
455.000000	6.211409   
455.500000	6.314019   
456.000000	6.415578   
456.500000	6.483254   
457.000000	6.468757   
457.500000	6.442307   
458.000000	6.399785   
458.500000	6.367041   
459.000000	6.289834   
459.500000	6.203276   
460.000000	6.114831   
460.500000	6.037736   
461.000000	5.978009   
461.500000	5.903685   
462.000000	5.816566   
462.500000	5.728797   
463.000000	5.714235   
463.500000	5.775754   
464.000000	5.880770   
464.500000	5.960884   
465.000000	6.032357   
465.500000	6.118179   
466.000000	6.230060   
466.500000	6.270535   
467.000000	6.221059   
467.500000	6.132088   
468.000000	6.059183   
468.500000	6.020676   
469.000000	5.950824   
469.500000	5.843025   
470.000000	5.758731   
470.500000	5.743116   
471.000000	5.752290   
471.500000	5.772540   
472.000000	5.770672   
472.500000	5.804571   
473.000000	5.844635   
473.500000	5.844812   
474.000000	5.801554   
474.500000	5.757047   
475.000000	5.708767   
475.500000	5.685770   
476.000000	5.690918   
476.500000	5.670331   
477.000000	5.676452   
477.500000	5.673734   
478.000000	5.623441   
478.500000	5.533492   
479.000000	5.465081   
479.500000	5.404412   
480.000000	5.364177   
480.500000	5.361158   
481.000000	5.391258   
481.500000	5.450438   
482.000000	5.518800   
482.500000	5.505036   
483.000000	5.416459   
483.500000	5.263519   
484.000000	5.073912   
484.500000	4.858250   
485.000000	4.664131   
485.500000	4.540910   
486.000000	4.482309   
486.500000	4.531747   
487.000000	4.597346   
487.500000	4.654541   
488.000000	4.663804   
488.500000	4.615398   
489.000000	4.517346   
489.500000	4.373862   
490.000000	4.247561   
490.500000	4.127923   
491.000000	4.096532   
491.500000	4.083567   
492.000000	4.125949   
492.500000	4.198812   
493.000000	4.230714   
493.500000	4.204386   
494.000000	4.118543   
494.500000	4.023859   
495.000000	3.888388   
495.500000	3.770777   
496.000000	3.617284   
496.500000	3.478996   
497.000000	3.378561   
497.500000	3.294240   
498.000000	3.205256   
498.500000	3.077905   
499.000000	3.027022   
499.500000	3.013925   
500.000000	3.058605   
500.500000	3.094874   
501.000000	3.126600   
501.500000	3.156059   
502.000000	3.164298   
502.500000	3.146938   
503.000000	3.030416   
503.500000	2.907482   
504.000000	2.787871   
504.500000	2.692769   
505.000000	2.615315   
505.500000	2.561587   
506.000000	2.526927   
506.500000	2.472649   
507.000000	2.440615   
507.500000	2.388245   
508.000000	2.344325   
508.500000	2.316527   
509.000000	2.313660   
509.500000	2.323026   
510.000000	2.345402   
510.500000	2.379556   
511.000000	2.377473   
511.500000	2.363285   
512.000000	2.360134   
512.500000	2.357967   
513.000000	2.365430   
513.500000	2.377543   
514.000000	2.379481   
514.500000	2.392709   
515.000000	2.383901   
515.500000	2.351523   
516.000000	2.299300   
516.500000	2.246237   
517.000000	2.201955   
517.500000	2.177800   
518.000000	2.170526   
518.500000	2.177560   
519.000000	2.213028   
519.500000	2.221615   
520.000000	2.233102   
520.500000	2.245564   
521.000000	2.250982   
521.500000	2.243806   
522.000000	2.228127   
522.500000	2.193748   
523.000000	2.151499   
523.500000	2.117839   
524.000000	2.059746   
524.500000	1.998597   
525.000000	1.954671   
525.500000	1.938623   
526.000000	1.940793   
526.500000	1.954324   
527.000000	1.964548   
527.500000	1.992932   
528.000000	2.018597   
528.500000	2.013806   
529.000000	1.968125   
529.500000	1.912486   
530.000000	1.872933   
530.500000	1.838181   
531.000000	1.810735   
531.500000	1.791410   
532.000000	1.801176   
532.500000	1.835211   
533.000000	1.876037   
533.500000	1.901165   
534.000000	1.911729   
534.500000	1.927998   
535.000000	1.930159   
535.500000	1.915073   
536.000000	1.892759   
536.500000	1.873279   
537.000000	1.858282   
537.500000	1.837738   
538.000000	1.808655   
538.500000	1.777294   
539.000000	1.751782   
539.500000	1.728165   
540.000000	1.700624   
540.500000	1.685633   
541.000000	1.672668   
541.500000	1.668294   
542.000000	1.667817   
542.500000	1.668870   
543.000000	1.692885   
543.500000	1.728660   
544.000000	1.772071   
544.500000	1.810312   
545.000000	1.855900   
545.500000	1.892302   
546.000000	1.916483   
546.500000	1.929551   
547.000000	1.902599   
547.500000	1.878361   
548.000000	1.854700   
548.500000	1.838883   
549.000000	1.832412   
549.500000	1.842831   
550.000000	1.866499   
550.500000	1.903483   
551.000000	1.953447   
551.500000	1.979981   
552.000000	1.997208   
552.500000	2.000995   
553.000000	1.991834   
553.500000	1.976165   
554.000000	1.951842   
554.500000	1.924926   
555.000000	1.906559   
555.500000	1.913522   
556.000000	1.926757   
556.500000	1.938121   
557.000000	1.937168   
557.500000	1.924654   
558.000000	1.922530   
558.500000	1.924426   
559.000000	1.925607   
559.500000	1.905069   
560.000000	1.879780   
560.500000	1.854780   
561.000000	1.819290   
561.500000	1.778542   
562.000000	1.718561   
562.500000	1.658734   
563.000000	1.608132   
563.500000	1.597298   
564.000000	1.588648   
564.500000	1.604072   
565.000000	1.644757   
565.500000	1.679415   
566.000000	1.717816   
566.500000	1.757550   
567.000000	1.766513   
567.500000	1.743040   
568.000000	1.718804   
568.500000	1.685129   
569.000000	1.657828   
569.500000	1.638370   
570.000000	1.589450   
570.500000	1.544765   
571.000000	1.528672   
571.500000	1.521468   
572.000000	1.521119   
572.500000	1.503652   
573.000000	1.486613   
573.500000	1.484831   
574.000000	1.517275   
574.500000	1.518507   
575.000000	1.525079   
575.500000	1.539270   
576.000000	1.554365   
576.500000	1.592323   
577.000000	1.622381   
577.500000	1.650071   
578.000000	1.647604   
578.500000	1.656050   
579.000000	1.615514   
579.500000	1.576172   
580.000000	1.528918   
580.500000	1.466408   
581.000000	1.434038   
581.500000	1.435246   
582.000000	1.468853   
582.500000	1.470735   
583.000000	1.486656   
583.500000	1.489368   
584.000000	1.493385   
584.500000	1.499823   
585.000000	1.481114   
585.500000	1.453342   
586.000000	1.455760   
586.500000	1.498941   
587.000000	1.527036   
587.500000	1.549461   
588.000000	1.575072   
588.500000	1.590149   
589.000000	1.610025   
589.500000	1.606277   
590.000000	1.564160   
590.500000	1.536639   
591.000000	1.511332   
591.500000	1.487678   
592.000000	1.471312   
592.500000	1.482268   
593.000000	1.506630   
593.500000	1.570502   
594.000000	1.635824   
594.500000	1.668719   

