PE FL                   SPECTRUM    ASCII       PEDS        1.60        
  -1
PM9BC7~1
23/10/09
18:56:42.00
23/10/09
18:56:42.00


594.500000
1









LS55
180.00
10.00
10.00
SCAN
1
20
100
100
0
800
0
2
0
1
7
ON
800 600 
1 0 0
#HDR
-1
-1
#GR
NM

0.00002384185791015625
0.0
300.000000
0.500000
590
8
30.084406
1.120692
#DATA
300.000000	23.008000 
300.500000	26.273149 
301.000000	28.911347 
301.500000	30.048889 
302.000000	30.084406 
302.500000	29.136968 
303.000000	27.413024 
303.500000	25.510079 
304.000000	24.083535 
304.500000	23.386838 
305.000000	23.426250 
305.500000	24.238757 
306.000000	25.012017 
306.500000	25.714885 
307.000000	26.225788 
307.500000	26.239504 
308.000000	26.052768 
308.500000	25.539726 
309.000000	24.912674 
309.500000	24.486416 
310.000000	24.147599 
310.500000	23.745569 
311.000000	22.880499 
311.500000	21.831968 
312.000000	20.566684 
312.500000	19.256416 
313.000000	18.014920 
313.500000	16.968730 
314.000000	16.732692 
314.500000	17.190584 
315.000000	18.262101 
315.500000	19.231271 
316.000000	20.457809 
316.500000	21.492505 
317.000000	21.693469 
317.500000	21.130187 
318.000000	19.575401 
318.500000	18.124647 
319.000000	16.704786 
319.500000	15.759084 
320.000000	14.847381 
320.500000	14.518986 
321.000000	15.081416 
321.500000	15.962865 
322.000000	16.692212 
322.500000	16.489910 
323.000000	16.064207 
323.500000	15.495262 
324.000000	15.114177 
324.500000	14.326962 
325.000000	13.436223 
325.500000	13.111149 
326.000000	13.431453 
326.500000	14.179042 
327.000000	14.474814 
327.500000	14.724578 
328.000000	14.954187 
328.500000	15.503753 
329.000000	15.963913 
329.500000	16.191502 
330.000000	16.508741 
330.500000	17.087791 
331.000000	17.876133 
331.500000	18.460617 
332.000000	18.866047 
332.500000	19.200142 
333.000000	19.641452 
333.500000	20.027213 
334.000000	20.304470 
334.500000	20.315003 
335.000000	20.114545 
335.500000	19.741366 
336.000000	19.073791 
336.500000	18.266982 
337.000000	17.460823 
337.500000	16.842055 
338.000000	16.403176 
338.500000	16.294898 
339.000000	16.384444 
339.500000	16.600343 
340.000000	16.837171 
340.500000	16.941077 
341.000000	16.991628 
341.500000	17.071973 
342.000000	17.188580 
342.500000	17.215170 
343.000000	17.227875 
343.500000	17.186374 
344.000000	16.961670 
344.500000	16.571300 
345.000000	16.062510 
345.500000	15.479206 
346.000000	14.972636 
346.500000	14.561835 
347.000000	14.227519 
347.500000	13.975939 
348.000000	13.794919 
348.500000	13.670102 
349.000000	13.563090 
349.500000	13.480885 
350.000000	13.409425 
350.500000	13.455024 
351.000000	13.466980 
351.500000	13.405217 
352.000000	13.354455 
352.500000	13.255169 
353.000000	13.076519 
353.500000	12.835124 
354.000000	12.561337 
354.500000	12.340255 
355.000000	12.174148 
355.500000	12.049337 
356.000000	11.715407 
356.500000	11.293212 
357.000000	10.882928 
357.500000	10.415554 
358.000000	9.950723  
358.500000	9.526014  
359.000000	9.314720  
359.500000	9.177845  
360.000000	9.242246  
360.500000	9.298910  
361.000000	9.376505  
361.500000	9.689770  
362.000000	9.867996  
362.500000	10.044179 
363.000000	10.025865 
363.500000	10.061322 
364.000000	9.961303  
364.500000	9.742787  
365.000000	9.392338  
365.500000	9.014161  
366.000000	8.843435  
366.500000	8.644751  
367.000000	8.744954  
367.500000	8.905979  
368.000000	9.146552  
368.500000	9.407434  
369.000000	9.534324  
369.500000	9.524820  
370.000000	9.305195  
370.500000	9.047825  
371.000000	8.673298  
371.500000	8.519322  
372.000000	8.487730  
372.500000	8.514832  
373.000000	8.639812  
373.500000	8.893482  
374.000000	9.169614  
374.500000	9.313748  
375.000000	9.358180  
375.500000	9.355375  
376.000000	9.333534  
376.500000	9.294065  
377.000000	9.086708  
377.500000	8.779769  
378.000000	8.471484  
378.500000	8.108811  
379.000000	7.690029  
379.500000	7.303936  
380.000000	7.056660  
380.500000	7.023431  
381.000000	7.164043  
381.500000	7.270053  
382.000000	7.390065  
382.500000	7.490179  
383.000000	7.441021  
383.500000	7.321415  
384.000000	7.187351  
384.500000	7.005297  
385.000000	6.837160  
385.500000	6.761921  
386.000000	6.635142  
386.500000	6.589407  
387.000000	6.540816  
387.500000	6.386312  
388.000000	6.254795  
388.500000	6.229378  
389.000000	6.226252  
389.500000	6.248151  
390.000000	6.320426  
390.500000	6.301850  
391.000000	6.270765  
391.500000	6.185467  
392.000000	6.003492  
392.500000	5.781017  
393.000000	5.599444  
393.500000	5.433127  
394.000000	5.340780  
394.500000	5.307435  
395.000000	5.203036  
395.500000	5.074012  
396.000000	4.967257  
396.500000	4.899563  
397.000000	4.864913  
397.500000	4.819114  
398.000000	4.784116  
398.500000	4.754897  
399.000000	4.763945  
399.500000	4.762595  
400.000000	4.725687  
400.500000	4.682739  
401.000000	4.667762  
401.500000	4.649617  
402.000000	4.643889  
402.500000	4.718774  
403.000000	4.813577  
403.500000	4.932002  
404.000000	5.044223  
404.500000	5.087105  
405.000000	5.110619  
405.500000	5.174598  
406.000000	5.170025  
406.500000	5.104655  
407.000000	5.067319  
407.500000	4.996984  
408.000000	4.904699  
408.500000	4.798868  
409.000000	4.682109  
409.500000	4.585072  
410.000000	4.585193  
410.500000	4.513842  
411.000000	4.434552  
411.500000	4.360182  
412.000000	4.286868  
412.500000	4.233996  
413.000000	4.189135  
413.500000	4.145202  
414.000000	4.081473  
414.500000	4.133742  
415.000000	4.148247  
415.500000	4.144931  
416.000000	4.147538  
416.500000	4.141212  
417.000000	4.125775  
417.500000	4.099563  
418.000000	4.043450  
418.500000	3.963325  
419.000000	3.938091  
419.500000	3.900008  
420.000000	3.857424  
420.500000	3.834975  
421.000000	3.824328  
421.500000	3.805946  
422.000000	3.780248  
422.500000	3.717942  
423.000000	3.646187  
423.500000	3.533227  
424.000000	3.407046  
424.500000	3.253899  
425.000000	3.131304  
425.500000	3.076217  
426.000000	3.070647  
426.500000	3.124164  
427.000000	3.154580  
427.500000	3.205684  
428.000000	3.223512  
428.500000	3.243835  
429.000000	3.207819  
429.500000	3.142238  
430.000000	3.101213  
430.500000	3.048649  
431.000000	3.031754  
431.500000	3.005251  
432.000000	3.011874  
432.500000	3.016071  
433.000000	3.045460  
433.500000	3.068685  
434.000000	3.071340  
434.500000	3.077737  
435.000000	3.043289  
435.500000	2.995643  
436.000000	2.924456  
436.500000	2.864924  
437.000000	2.821636  
437.500000	2.788723  
438.000000	2.787790  
438.500000	2.812951  
439.000000	2.868099  
439.500000	2.907864  
440.000000	2.921492  
440.500000	2.891925  
441.000000	2.860893  
441.500000	2.833247  
442.000000	2.787224  
442.500000	2.719191  
443.000000	2.687010  
443.500000	2.695068  
444.000000	2.706229  
444.500000	2.724416  
445.000000	2.734592  
445.500000	2.762118  
446.000000	2.821401  
446.500000	2.862832  
447.000000	2.833803  
447.500000	2.800043  
448.000000	2.756335  
448.500000	2.683193  
449.000000	2.614623  
449.500000	2.550134  
450.000000	2.520127  
450.500000	2.537691  
451.000000	2.595397  
451.500000	2.623774  
452.000000	2.686225  
452.500000	2.733527  
453.000000	2.742766  
453.500000	2.734212  
454.000000	2.689795  
454.500000	2.609206  
455.000000	2.529242  
455.500000	2.456826  
456.000000	2.387754  
456.500000	2.407462  
457.000000	2.477411  
457.500000	2.563928  
458.000000	2.660908  
458.500000	2.748488  
459.000000	2.800117  
459.500000	2.801902  
460.000000	2.746083  
460.500000	2.633338  
461.000000	2.529904  
461.500000	2.435272  
462.000000	2.347547  
462.500000	2.275086  
463.000000	2.242714  
463.500000	2.218873  
464.000000	2.212826  
464.500000	2.214275  
465.000000	2.210852  
465.500000	2.212998  
466.000000	2.223246  
466.500000	2.210234  
467.000000	2.179468  
467.500000	2.148206  
468.000000	2.116439  
468.500000	2.091531  
469.000000	2.098472  
469.500000	2.132986  
470.000000	2.190021  
470.500000	2.254158  
471.000000	2.286804  
471.500000	2.296700  
472.000000	2.288511  
472.500000	2.256421  
473.000000	2.196808  
473.500000	2.147449  
474.000000	2.097041  
474.500000	2.069803  
475.000000	2.046827  
475.500000	2.013954  
476.000000	1.991663  
476.500000	1.967313  
477.000000	1.940275  
477.500000	1.909750  
478.000000	1.901098  
478.500000	1.891640  
479.000000	1.904904  
479.500000	1.905890  
480.000000	1.898552  
480.500000	1.891491  
481.000000	1.884914  
481.500000	1.865444  
482.000000	1.835343  
482.500000	1.819261  
483.000000	1.797586  
483.500000	1.783563  
484.000000	1.778331  
484.500000	1.781062  
485.000000	1.798553  
485.500000	1.822406  
486.000000	1.857243  
486.500000	1.906307  
487.000000	1.971601  
487.500000	2.030647  
488.000000	2.067976  
488.500000	2.096883  
489.000000	2.123383  
489.500000	2.140887  
490.000000	2.115382  
490.500000	2.072220  
491.000000	2.038836  
491.500000	2.016394  
492.000000	2.004542  
492.500000	1.986535  
493.000000	1.980644  
493.500000	2.010499  
494.000000	2.075356  
494.500000	2.123731  
495.000000	2.149577  
495.500000	2.177255  
496.000000	2.190254  
496.500000	2.194375  
497.000000	2.182148  
497.500000	2.160073  
498.000000	2.144453  
498.500000	2.160373  
499.000000	2.185313  
499.500000	2.208406  
500.000000	2.242349  
500.500000	2.270077  
501.000000	2.297984  
501.500000	2.313826  
502.000000	2.315307  
502.500000	2.297047  
503.000000	2.277813  
503.500000	2.263927  
504.000000	2.254272  
504.500000	2.248669  
505.000000	2.240968  
505.500000	2.237975  
506.000000	2.242088  
506.500000	2.246917  
507.000000	2.243221  
507.500000	2.232267  
508.000000	2.228278  
508.500000	2.230947  
509.000000	2.237141  
509.500000	2.249657  
510.000000	2.253812  
510.500000	2.270016  
511.000000	2.271573  
511.500000	2.268416  
512.000000	2.243891  
512.500000	2.209997  
513.000000	2.170707  
513.500000	2.134224  
514.000000	2.122222  
514.500000	2.121200  
515.000000	2.150826  
515.500000	2.178636  
516.000000	2.214356  
516.500000	2.245729  
517.000000	2.264231  
517.500000	2.257588  
518.000000	2.230978  
518.500000	2.200054  
519.000000	2.167263  
519.500000	2.147058  
520.000000	2.133110  
520.500000	2.120023  
521.000000	2.107548  
521.500000	2.091138  
522.000000	2.057834  
522.500000	2.021358  
523.000000	1.984901  
523.500000	1.962922  
524.000000	1.940364  
524.500000	1.939428  
525.000000	1.945921  
525.500000	1.952158  
526.000000	1.957612  
526.500000	1.947662  
527.000000	1.933031  
527.500000	1.918200  
528.000000	1.910609  
528.500000	1.891697  
529.000000	1.888729  
529.500000	1.896874  
530.000000	1.901004  
530.500000	1.917287  
531.000000	1.921114  
531.500000	1.919690  
532.000000	1.920267  
532.500000	1.928672  
533.000000	1.935394  
533.500000	1.956316  
534.000000	1.979755  
534.500000	1.992708  
535.000000	2.012316  
535.500000	2.008702  
536.000000	1.985914  
536.500000	1.944689  
537.000000	1.894340  
537.500000	1.827567  
538.000000	1.769115  
538.500000	1.713573  
539.000000	1.670091  
539.500000	1.662419  
540.000000	1.672788  
540.500000	1.706738  
541.000000	1.753602  
541.500000	1.809055  
542.000000	1.853044  
542.500000	1.878894  
543.000000	1.871792  
543.500000	1.862276  
544.000000	1.847156  
544.500000	1.823288  
545.000000	1.795321  
545.500000	1.773989  
546.000000	1.771485  
546.500000	1.788248  
547.000000	1.806015  
547.500000	1.798965  
548.000000	1.804352  
548.500000	1.820613  
549.000000	1.834384  
549.500000	1.816858  
550.000000	1.789088  
550.500000	1.756885  
551.000000	1.740705  
551.500000	1.747245  
552.000000	1.748389  
552.500000	1.773890  
553.000000	1.833305  
553.500000	1.911187  
554.000000	1.960032  
554.500000	1.974282  
555.000000	1.958891  
555.500000	1.914844  
556.000000	1.867925  
556.500000	1.810067  
557.000000	1.758188  
557.500000	1.738279  
558.000000	1.737319  
558.500000	1.741259  
559.000000	1.747092  
559.500000	1.760949  
560.000000	1.774772  
560.500000	1.791882  
561.000000	1.785308  
561.500000	1.768618  
562.000000	1.733071  
562.500000	1.677751  
563.000000	1.612192  
563.500000	1.532482  
564.000000	1.457025  
564.500000	1.398350  
565.000000	1.376133  
565.500000	1.374025  
566.000000	1.421942  
566.500000	1.472941  
567.000000	1.518420  
567.500000	1.555715  
568.000000	1.573729  
568.500000	1.569723  
569.000000	1.552421  
569.500000	1.526653  
570.000000	1.483775  
570.500000	1.489328  
571.000000	1.482540  
571.500000	1.478962  
572.000000	1.476528  
572.500000	1.469378  
573.000000	1.462544  
573.500000	1.460915  
574.000000	1.457754  
574.500000	1.433069  
575.000000	1.406061  
575.500000	1.370236  
576.000000	1.341693  
576.500000	1.321329  
577.000000	1.308198  
577.500000	1.292638  
578.000000	1.290799  
578.500000	1.336467  
579.000000	1.393557  
579.500000	1.439016  
580.000000	1.457445  
580.500000	1.448639  
581.000000	1.419065  
581.500000	1.391969  
582.000000	1.350797  
582.500000	1.300801  
583.000000	1.286596  
583.500000	1.299707  
584.000000	1.306580  
584.500000	1.309281  
585.000000	1.280159  
585.500000	1.230171  
586.000000	1.189471  
586.500000	1.152041  
587.000000	1.120692  
587.500000	1.127944  
588.000000	1.149263  
588.500000	1.176380  
589.000000	1.215116  
589.500000	1.238048  
590.000000	1.241157  
590.500000	1.227766  
591.000000	1.202011  
591.500000	1.173109  
592.000000	1.163469  
592.500000	1.167826  
593.000000	1.167052  
593.500000	1.173242  
594.000000	1.180648  
594.500000	1.183962  

