PE FL                   SPECTRUM    ASCII       PEDS        1.60        
  -1
QU4692~1
23/10/11
16:07:52.00
23/10/11
16:07:52.00


424.500000
1









LS55
338.00
5.00
5.00
SCAN
1
16
100
100
0
100
0
1
0
1
7
ON
430 338 
1 0 0
#HDR
-1
-1
#GR
NM

0.00002384185791015625
0.0
330.000000
0.500000
190
8
110.424553
2.449000
#DATA
330.000000	2.449000   
330.500000	3.440706   
331.000000	4.633554   
331.500000	6.108437   
332.000000	7.992871   
332.500000	10.420186  
333.000000	13.558966  
333.500000	17.434073  
334.000000	22.009229  
334.500000	26.958618  
335.000000	32.089141  
335.500000	37.185918  
336.000000	41.855705  
336.500000	45.776477  
337.000000	48.789700  
337.500000	50.750149  
338.000000	51.713698  
338.500000	51.809667  
339.000000	51.072013  
339.500000	49.816714  
340.000000	48.454736  
340.500000	47.135195  
341.000000	45.968736  
341.500000	45.328726  
342.000000	45.317131  
342.500000	46.040171  
343.000000	47.506818  
343.500000	49.579102  
344.000000	52.235902  
344.500000	55.337092  
345.000000	58.702783  
345.500000	61.952661  
346.000000	65.044395  
346.500000	68.014811  
347.000000	70.779730  
347.500000	73.397789  
348.000000	75.864263  
348.500000	78.472533  
349.000000	81.253544  
349.500000	84.296283  
350.000000	87.310422  
350.500000	90.092813  
351.000000	92.767630  
351.500000	95.236102  
352.000000	97.360053  
352.500000	98.851857  
353.000000	100.203189 
353.500000	101.450123 
354.000000	102.616800 
354.500000	103.656967 
355.000000	104.463026 
355.500000	105.253384 
356.000000	106.129731 
356.500000	107.067055 
357.000000	107.736804 
357.500000	108.400433 
358.000000	109.084105 
358.500000	109.645650 
359.000000	110.062179 
359.500000	110.291647 
360.000000	110.413730 
360.500000	110.424553 
361.000000	110.388122 
361.500000	110.147355 
362.000000	109.714007 
362.500000	109.217605 
363.000000	108.476675 
363.500000	107.599107 
364.000000	106.766663 
364.500000	106.119735 
365.000000	105.475981 
365.500000	104.934242 
366.000000	104.598129 
366.500000	104.358982 
367.000000	104.141708 
367.500000	103.702455 
368.000000	103.082468 
368.500000	102.352616 
369.000000	101.585304 
369.500000	100.580007 
370.000000	99.380887  
370.500000	98.138778  
371.000000	96.868800  
371.500000	95.520116  
372.000000	94.239579  
372.500000	93.054978  
373.000000	91.954870  
373.500000	91.016905  
374.000000	90.055141  
374.500000	88.980878  
375.000000	87.883359  
375.500000	86.809298  
376.000000	85.394583  
376.500000	83.821497  
377.000000	82.380197  
377.500000	81.059726  
378.000000	79.988296  
378.500000	78.938013  
379.000000	77.869274  
379.500000	76.888072  
380.000000	76.113892  
380.500000	75.142783  
381.000000	73.829247  
381.500000	72.439922  
382.000000	71.066936  
382.500000	69.832037  
383.000000	68.733081  
383.500000	67.661601  
384.000000	66.655104  
384.500000	65.838202  
385.000000	65.115315  
385.500000	64.124710  
386.000000	62.937377  
386.500000	61.706374  
387.000000	60.485887  
387.500000	59.425770  
388.000000	58.384437  
388.500000	57.395877  
389.000000	56.394015  
389.500000	55.476643  
390.000000	54.429504  
390.500000	53.206762  
391.000000	51.970426  
391.500000	50.811429  
392.000000	49.868108  
392.500000	48.942575  
393.000000	48.096443  
393.500000	47.232849  
394.000000	46.410817  
394.500000	45.530655  
395.000000	44.487856  
395.500000	43.340135  
396.000000	42.232894  
396.500000	41.284848  
397.000000	40.406106  
397.500000	39.704631  
398.000000	39.130231  
398.500000	38.637790  
399.000000	38.186288  
399.500000	37.609528  
400.000000	36.839564  
400.500000	35.878643  
401.000000	34.796247  
401.500000	33.637734  
402.000000	32.614720  
402.500000	31.816416  
403.000000	31.209906  
403.500000	30.807459  
404.000000	30.559127  
404.500000	30.429508  
405.000000	30.249495  
405.500000	29.928759  
406.000000	29.402601  
406.500000	28.845199  
407.000000	28.278866  
407.500000	27.756313  
408.000000	27.135292  
408.500000	26.471331  
409.000000	25.831948  
409.500000	25.217837  
410.000000	24.528871  
410.500000	23.750532  
411.000000	23.012539  
411.500000	22.340871  
412.000000	21.795684  
412.500000	21.238602  
413.000000	20.669916  
413.500000	20.106404  
414.000000	19.588276  
414.500000	19.123985  
415.000000	18.639618  
415.500000	18.174755  
416.000000	17.703288  
416.500000	17.244105  
417.000000	16.758843  
417.500000	16.226696  
418.000000	15.732992  
418.500000	15.253006  
419.000000	14.877118  
419.500000	14.562033  
420.000000	14.291998  
420.500000	14.058219  
421.000000	13.824514  
421.500000	13.600054  
422.000000	13.262608  
422.500000	12.940642  
423.000000	12.561586  
423.500000	12.236847  
424.000000	11.987844  
424.500000	11.784442  

