PE FL                   SPECTRUM    ASCII       PEDS        1.60        
  -1
QU5509~1
23/10/11
16:30:24.00
23/10/11
16:30:24.00


424.500000
1









LS55
338.00
5.00
5.00
SCAN
1
16
100
100
0
100
0
1
0
1
7
ON
430 338 
1 0 0
#HDR
-1
-1
#GR
NM

0.00002384185791015625
0.0
330.000000
0.500000
190
8
111.000133
5.209770
#DATA
330.000000	5.362000   
330.500000	5.209770   
331.000000	5.291173   
331.500000	5.750053   
332.000000	6.699720   
332.500000	8.272661   
333.000000	10.543845  
333.500000	13.551714  
334.000000	17.213638  
334.500000	21.366176  
335.000000	25.814696  
335.500000	30.365121  
336.000000	34.728611  
336.500000	38.633702  
337.000000	41.832221  
337.500000	44.082198  
338.000000	45.387389  
338.500000	45.784741  
339.000000	45.418768  
339.500000	44.585653  
340.000000	43.513521  
340.500000	42.479919  
341.000000	41.896731  
341.500000	41.942543  
342.000000	42.696482  
342.500000	44.249830  
343.000000	46.459563  
343.500000	49.131466  
344.000000	52.264353  
344.500000	55.566492  
345.000000	58.813815  
345.500000	61.955837  
346.000000	64.993979  
346.500000	67.979765  
347.000000	70.916570  
347.500000	73.732761  
348.000000	76.385144  
348.500000	79.170403  
349.000000	81.916481  
349.500000	84.608749  
350.000000	87.119438  
350.500000	89.551585  
351.000000	92.012933  
351.500000	94.358575  
352.000000	96.491749  
352.500000	98.193598  
353.000000	99.742706  
353.500000	100.923854 
354.000000	101.926696 
354.500000	102.654376 
355.000000	103.367353 
355.500000	104.291974 
356.000000	105.383356 
356.500000	106.599228 
357.000000	107.735380 
357.500000	108.895440 
358.000000	109.905550 
358.500000	110.639057 
359.000000	110.993850 
359.500000	111.000133 
360.000000	110.786181 
360.500000	110.447506 
361.000000	110.051493 
361.500000	109.451267 
362.000000	108.704631 
362.500000	108.045990 
363.000000	107.469193 
363.500000	107.043386 
364.000000	106.714490 
364.500000	106.358489 
365.000000	106.073516 
365.500000	105.882437 
366.000000	105.493619 
366.500000	104.616449 
367.000000	103.448447 
367.500000	102.162433 
368.000000	100.867806 
368.500000	99.755975  
369.000000	98.604160  
369.500000	97.572774  
370.000000	96.866198  
370.500000	96.371202  
371.000000	95.840374  
371.500000	95.185583  
372.000000	94.537630  
372.500000	93.883051  
373.000000	93.413432  
373.500000	92.790171  
374.000000	92.032959  
374.500000	91.158613  
375.000000	90.183599  
375.500000	88.918270  
376.000000	87.390921  
376.500000	85.725039  
377.000000	84.053236  
377.500000	82.679257  
378.000000	81.452238  
378.500000	80.382872  
379.000000	79.397198  
379.500000	78.457432  
380.000000	77.268304  
380.500000	75.829119  
381.000000	74.145144  
381.500000	72.378874  
382.000000	70.736487  
382.500000	69.154971  
383.000000	67.703152  
383.500000	66.380198  
384.000000	65.386871  
384.500000	64.509870  
385.000000	63.614284  
385.500000	62.675887  
386.000000	61.763792  
386.500000	60.988426  
387.000000	60.137695  
387.500000	59.297289  
388.000000	58.352699  
388.500000	57.439359  
389.000000	56.542390  
389.500000	55.592376  
390.000000	54.508852  
390.500000	53.355980  
391.000000	52.257674  
391.500000	51.034071  
392.000000	49.805819  
392.500000	48.445119  
393.000000	47.093891  
393.500000	45.794133  
394.000000	44.705890  
394.500000	43.772119  
395.000000	43.022292  
395.500000	42.490884  
396.000000	42.055797  
396.500000	41.725352  
397.000000	41.348145  
397.500000	40.967981  
398.000000	40.481116  
398.500000	39.984678  
399.000000	39.384172  
399.500000	38.649830  
400.000000	37.793121  
400.500000	36.874682  
401.000000	35.956821  
401.500000	35.012597  
402.000000	34.051391  
402.500000	33.161800  
403.000000	32.451022  
403.500000	31.839804  
404.000000	31.274984  
404.500000	30.724096  
405.000000	30.165440  
405.500000	29.628041  
406.000000	29.111884  
406.500000	28.472702  
407.000000	27.854544  
407.500000	27.339329  
408.000000	26.884464  
408.500000	26.390054  
409.000000	25.905366  
409.500000	25.430813  
410.000000	24.990737  
410.500000	24.598651  
411.000000	24.029914  
411.500000	23.458786  
412.000000	22.902856  
412.500000	22.441768  
413.000000	21.956593  
413.500000	21.401367  
414.000000	20.856563  
414.500000	20.328521  
415.000000	19.910379  
415.500000	19.469812  
416.000000	19.017841  
416.500000	18.468876  
417.000000	17.956609  
417.500000	17.442918  
418.000000	16.875828  
418.500000	16.354641  
419.000000	15.763022  
419.500000	15.271471  
420.000000	14.845935  
420.500000	14.454420  
421.000000	14.042118  
421.500000	13.648885  
422.000000	13.255282  
422.500000	12.871686  
423.000000	12.625773  
423.500000	12.398398  
424.000000	12.253344  
424.500000	12.153296  

