PE FL                   SPECTRUM    ASCII       PEDS        1.60        
  -1
QUC101~1
23/10/11
16:16:56.00
23/10/11
16:16:56.00


424.500000
1









LS55
338.00
5.00
5.00
SCAN
1
16
100
100
0
100
0
1
0
1
7
ON
430 338 
1 0 0
#HDR
-1
-1
#GR
NM

0.00002384185791015625
0.0
330.000000
0.500000
190
8
108.700295
0.134999
#DATA
330.000000	0.134999   
330.500000	1.751413   
331.000000	3.263345   
331.500000	4.831062   
332.000000	6.593730   
332.500000	8.709597   
333.000000	11.305645  
333.500000	14.459172  
334.000000	18.287623  
334.500000	22.827140  
335.000000	27.753799  
335.500000	32.762910  
336.000000	37.489670  
336.500000	41.635805  
337.000000	44.916187  
337.500000	47.117455  
338.000000	48.307657  
338.500000	48.652496  
339.000000	48.297308  
339.500000	47.365958  
340.000000	46.206984  
340.500000	45.070960  
341.000000	44.219804  
341.500000	43.745200  
342.000000	43.566593  
342.500000	43.925263  
343.000000	45.027838  
343.500000	46.730735  
344.000000	48.835532  
344.500000	51.289876  
345.000000	54.091010  
345.500000	57.287795  
346.000000	60.742177  
346.500000	64.130723  
347.000000	67.485876  
347.500000	70.766030  
348.000000	73.840785  
348.500000	76.737680  
349.000000	79.462460  
349.500000	81.937511  
350.000000	84.199655  
350.500000	86.360666  
351.000000	88.386069  
351.500000	90.433150  
352.000000	92.354382  
352.500000	93.921063  
353.000000	95.256853  
353.500000	96.625663  
354.000000	98.076317  
354.500000	99.518231  
355.000000	100.996959 
355.500000	102.450667 
356.000000	103.989569 
356.500000	105.577231 
357.000000	106.792768 
357.500000	107.615507 
358.000000	108.012446 
358.500000	108.272008 
359.000000	108.404394 
359.500000	108.557175 
360.000000	108.663889 
360.500000	108.642908 
361.000000	108.700295 
361.500000	108.662268 
362.000000	108.578437 
362.500000	108.150704 
363.000000	107.575019 
363.500000	106.925887 
364.000000	106.332457 
364.500000	105.911838 
365.000000	105.371531 
365.500000	104.935728 
366.000000	104.394255 
366.500000	103.975574 
367.000000	103.403895 
367.500000	102.727951 
368.000000	101.874234 
368.500000	100.886081 
369.000000	99.912106  
369.500000	98.798366  
370.000000	97.716293  
370.500000	96.434327  
371.000000	95.131661  
371.500000	93.817957  
372.000000	92.621636  
372.500000	91.343049  
373.000000	90.092729  
373.500000	88.991218  
374.000000	87.957578  
374.500000	87.205324  
375.000000	86.479552  
375.500000	85.821793  
376.000000	85.103798  
376.500000	84.510616  
377.000000	83.674094  
377.500000	82.622715  
378.000000	81.345717  
378.500000	79.882496  
379.000000	78.457214  
379.500000	77.150716  
380.000000	75.859636  
380.500000	74.562400  
381.000000	73.519160  
381.500000	72.584768  
382.000000	71.695060  
382.500000	70.794910  
383.000000	69.788398  
383.500000	68.717810  
384.000000	67.764554  
384.500000	66.672203  
385.000000	65.320855  
385.500000	63.974755  
386.000000	62.586186  
386.500000	61.149805  
387.000000	59.689768  
387.500000	58.292151  
388.000000	57.011546  
388.500000	56.132441  
389.000000	55.446568  
389.500000	54.796172  
390.000000	54.273542  
390.500000	53.706965  
391.000000	53.059275  
391.500000	52.272937  
392.000000	51.298059  
392.500000	50.109701  
393.000000	48.965436  
393.500000	47.918121  
394.000000	46.895229  
394.500000	46.029227  
395.000000	45.180929  
395.500000	44.411726  
396.000000	43.699832  
396.500000	42.950484  
397.000000	42.044042  
397.500000	41.178047  
398.000000	40.488530  
398.500000	39.961986  
399.000000	39.491092  
399.500000	39.039795  
400.000000	38.554715  
400.500000	38.117127  
401.000000	37.651071  
401.500000	36.887801  
402.000000	35.980158  
402.500000	35.066526  
403.000000	34.187170  
403.500000	33.308466  
404.000000	32.511493  
404.500000	31.746010  
405.000000	31.135072  
405.500000	30.677596  
406.000000	30.139979  
406.500000	29.521675  
407.000000	28.799322  
407.500000	28.035675  
408.000000	27.202503  
408.500000	26.351258  
409.000000	25.459140  
409.500000	24.642045  
410.000000	24.021076  
410.500000	23.613580  
411.000000	23.473766  
411.500000	23.385591  
412.000000	23.287568  
412.500000	23.191466  
413.000000	22.943841  
413.500000	22.592012  
414.000000	22.116102  
414.500000	21.413655  
415.000000	20.622947  
415.500000	19.944971  
416.000000	19.270958  
416.500000	18.515546  
417.000000	17.822373  
417.500000	17.095911  
418.000000	16.527286  
418.500000	16.140430  
419.000000	15.691926  
419.500000	15.254864  
420.000000	14.996248  
420.500000	14.891566  
421.000000	14.772194  
421.500000	14.644480  
422.000000	14.382513  
422.500000	14.075105  
423.000000	13.809858  
423.500000	13.440147  
424.000000	13.020426  
424.500000	12.619763  

