PE FL                   SPECTRUM    ASCII       PEDS        1.60        
  -1
PM1FC7~1
23/10/10
16:37:06.00
23/10/10
16:37:06.00


444.500000
1









LS55
5.00
5.00
5.00
SCAN
1
20
100
100
0
500
0
2
0
1
7
ON
500 450 
1 0 0
#HDR
-1
-1
#GR
NM

0.00002384185791015625
0.0
300.000000
0.500000
290
8
72.691709
-3.722357
#DATA
300.000000	-2.080000 
300.500000	-1.663109 
301.000000	-1.226889 
301.500000	-1.088840 
302.000000	-1.459601 
302.500000	-2.166530 
303.000000	-2.866028 
303.500000	-3.328057 
304.000000	-3.500054 
304.500000	-3.681886 
305.000000	-3.722357 
305.500000	-3.416448 
306.000000	-2.926371 
306.500000	-2.640622 
307.000000	-2.361342 
307.500000	-2.175174 
308.000000	-2.005682 
308.500000	-1.793643 
309.000000	-1.786621 
309.500000	-1.999446 
310.000000	-2.264704 
310.500000	-2.544947 
311.000000	-3.008646 
311.500000	-3.262601 
312.000000	-3.384331 
312.500000	-3.403989 
313.000000	-3.112848 
313.500000	-2.794076 
314.000000	-2.504502 
314.500000	-2.289395 
315.000000	-2.278973 
315.500000	-2.555988 
316.000000	-2.775990 
316.500000	-2.857822 
317.000000	-2.994405 
317.500000	-2.968841 
318.000000	-2.851410 
318.500000	-2.477596 
319.000000	-1.937109 
319.500000	-1.567859 
320.000000	-1.471568 
320.500000	-1.482360 
321.000000	-1.354682 
321.500000	-1.326862 
322.000000	-1.152391 
322.500000	-1.138683 
323.000000	-1.041153 
323.500000	-0.840561 
324.000000	-0.697175 
324.500000	-0.643699 
325.000000	-0.816037 
325.500000	-1.074800 
326.000000	-1.347927 
326.500000	-1.351417 
327.000000	-1.326240 
327.500000	-1.224597 
328.000000	-1.060583 
328.500000	-0.875827 
329.000000	-0.534640 
329.500000	-0.311636 
330.000000	-0.201338 
330.500000	-0.150790 
331.000000	0.052588  
331.500000	0.535012  
332.000000	1.319348  
332.500000	2.202378  
333.000000	3.310139  
333.500000	4.784046  
334.000000	6.365301  
334.500000	8.210396  
335.000000	10.171877 
335.500000	12.399212 
336.000000	15.027597 
336.500000	18.237839 
337.000000	22.090242 
337.500000	26.532895 
338.000000	31.514384 
338.500000	36.735771 
339.000000	42.176037 
339.500000	47.331828 
340.000000	52.048008 
340.500000	56.479487 
341.000000	60.436815 
341.500000	63.944833 
342.000000	66.882072 
342.500000	69.289991 
343.000000	71.088091 
343.500000	72.363482 
344.000000	72.691709 
344.500000	72.010113 
345.000000	70.829323 
345.500000	68.980701 
346.000000	66.700037 
346.500000	64.027147 
347.000000	61.272738 
347.500000	58.668984 
348.000000	56.482406 
348.500000	54.500040 
349.000000	52.467014 
349.500000	50.850970 
350.000000	49.441245 
350.500000	48.206487 
351.000000	46.963880 
351.500000	45.757459 
352.000000	44.500309 
352.500000	43.443281 
353.000000	42.436820 
353.500000	41.633518 
354.000000	41.066244 
354.500000	41.017032 
355.000000	41.537713 
355.500000	42.818305 
356.000000	45.068099 
356.500000	47.853056 
357.000000	50.647130 
357.500000	53.464072 
358.000000	56.364327 
358.500000	58.661863 
359.000000	60.415592 
359.500000	61.123470 
360.000000	61.346396 
360.500000	61.575947 
361.000000	61.966350 
361.500000	62.031021 
362.000000	61.973781 
362.500000	62.207901 
363.000000	62.396211 
363.500000	62.820819 
364.000000	62.777655 
364.500000	62.636640 
365.000000	62.537131 
365.500000	62.624498 
366.000000	62.606335 
366.500000	62.265571 
367.000000	61.717059 
367.500000	60.927846 
368.000000	60.168650 
368.500000	59.211394 
369.000000	58.088532 
369.500000	56.954481 
370.000000	55.944252 
370.500000	55.340632 
371.000000	54.870803 
371.500000	54.602250 
372.000000	54.469588 
372.500000	54.459094 
373.000000	54.685909 
373.500000	54.796600 
374.000000	54.877598 
374.500000	55.127965 
375.000000	55.735555 
375.500000	56.501644 
376.000000	57.467123 
376.500000	58.537413 
377.000000	59.529694 
377.500000	60.665926 
378.000000	61.568039 
378.500000	61.951855 
379.000000	61.814405 
379.500000	61.170532 
380.000000	60.215113 
380.500000	59.174454 
381.000000	58.269919 
381.500000	57.301888 
382.000000	56.443216 
382.500000	55.860402 
383.000000	55.424588 
383.500000	55.139616 
384.000000	54.679795 
384.500000	54.038124 
385.000000	53.421902 
385.500000	52.778505 
386.000000	52.104495 
386.500000	51.091690 
387.000000	49.634339 
387.500000	47.789696 
388.000000	45.935277 
388.500000	43.909638 
389.000000	41.630880 
389.500000	39.324592 
390.000000	37.031293 
390.500000	35.114255 
391.000000	33.313594 
391.500000	31.503508 
392.000000	29.495703 
392.500000	27.707362 
393.000000	26.100080 
393.500000	24.734659 
394.000000	23.789141 
394.500000	23.065299 
395.000000	22.811583 
395.500000	22.762156 
396.000000	22.779296 
396.500000	22.743850 
397.000000	22.642074 
397.500000	22.213720 
398.000000	21.579920 
398.500000	20.887432 
399.000000	20.078510 
399.500000	19.277886 
400.000000	18.393646 
400.500000	17.545385 
401.000000	16.890836 
401.500000	16.443193 
402.000000	16.058403 
402.500000	15.839487 
403.000000	15.786946 
403.500000	15.789976 
404.000000	15.844731 
404.500000	15.780501 
405.000000	15.524179 
405.500000	15.245563 
406.000000	14.860204 
406.500000	14.339923 
407.000000	13.845171 
407.500000	13.352691 
408.000000	12.860564 
408.500000	12.456566 
409.000000	12.109605 
409.500000	11.828462 
410.000000	11.608804 
410.500000	11.437322 
411.000000	11.269938 
411.500000	11.166500 
412.000000	11.029187 
412.500000	10.868174 
413.000000	10.811655 
413.500000	10.806701 
414.000000	10.966854 
414.500000	11.085109 
415.000000	11.264782 
415.500000	11.582994 
416.000000	12.106412 
416.500000	12.659701 
417.000000	13.121623 
417.500000	13.647129 
418.000000	14.159501 
418.500000	14.792121 
419.000000	15.208121 
419.500000	15.428460 
420.000000	15.588317 
420.500000	15.779503 
421.000000	15.894040 
421.500000	15.869727 
422.000000	15.918258 
422.500000	16.033883 
423.000000	16.400947 
423.500000	16.825149 
424.000000	17.237977 
424.500000	17.753751 
425.000000	18.510877 
425.500000	19.306139 
426.000000	20.027472 
426.500000	20.658932 
427.000000	21.069754 
427.500000	21.489408 
428.000000	21.837922 
428.500000	22.001546 
429.000000	22.223340 
429.500000	22.696213 
430.000000	23.476301 
430.500000	24.674624 
431.000000	26.261413 
431.500000	28.022730 
432.000000	30.008547 
432.500000	32.486902 
433.000000	35.011490 
433.500000	37.436104 
434.000000	39.746201 
434.500000	41.882920 
435.000000	43.804512 
435.500000	45.539254 
436.000000	46.789524 
436.500000	47.412179 
437.000000	48.000087 
437.500000	48.272215 
438.000000	48.319614 
438.500000	48.303711 
439.000000	48.365762 
439.500000	48.517667 
440.000000	49.239575 
440.500000	50.204244 
441.000000	51.255808 
441.500000	52.742172 
442.000000	54.310427 
442.500000	55.864468 
443.000000	57.479096 
443.500000	58.931459 
444.000000	59.946674 
444.500000	61.100673 

