PE FL                   SPECTRUM    ASCII       PEDS        1.60        
  -1
PM8FC7~1
23/10/10
16:41:06.00
23/10/10
16:41:06.00


444.500000
1









LS55
40.00
5.00
5.00
SCAN
1
20
100
100
0
500
0
2
0
1
7
ON
500 450 
1 0 0
#HDR
-1
-1
#GR
NM

0.00002384185791015625
0.0
300.000000
0.500000
290
8
76.432336
0.189323
#DATA
300.000000	11.420000 
300.500000	10.226326 
301.000000	9.372242  
301.500000	8.832831  
302.000000	8.860202  
302.500000	9.415795  
303.000000	9.789627  
303.500000	10.315176 
304.000000	10.964074 
304.500000	11.485809 
305.000000	12.154794 
305.500000	13.075539 
306.000000	14.081805 
306.500000	15.470751 
307.000000	17.048522 
307.500000	18.157100 
308.000000	19.079834 
308.500000	19.818982 
309.000000	20.328659 
309.500000	20.809842 
310.000000	21.234568 
310.500000	21.511361 
311.000000	21.848694 
311.500000	22.256611 
312.000000	22.443236 
312.500000	22.385942 
313.000000	22.332378 
313.500000	22.148236 
314.000000	21.966432 
314.500000	21.917362 
315.000000	21.896879 
315.500000	22.140276 
316.000000	22.453072 
316.500000	22.719137 
317.000000	22.665301 
317.500000	22.599401 
318.000000	22.522758 
318.500000	22.590171 
319.000000	23.082982 
319.500000	23.745271 
320.000000	24.822173 
320.500000	26.212699 
321.000000	27.374704 
321.500000	27.835319 
322.000000	27.913484 
322.500000	27.161349 
323.000000	26.039624 
323.500000	25.146447 
324.000000	24.219395 
324.500000	23.666482 
325.000000	23.843293 
325.500000	24.439239 
326.000000	25.072247 
326.500000	25.881893 
327.000000	26.205332 
327.500000	26.099618 
328.000000	26.169514 
328.500000	26.140336 
329.000000	26.004372 
329.500000	26.177914 
330.000000	26.456656 
330.500000	27.079270 
331.000000	28.117133 
331.500000	29.506403 
332.000000	31.013011 
332.500000	33.040018 
333.000000	35.248905 
333.500000	37.497912 
334.000000	39.908857 
334.500000	42.352859 
335.000000	45.074711 
335.500000	48.070113 
336.000000	51.453521 
336.500000	54.884675 
337.000000	58.886321 
337.500000	63.123510 
338.000000	67.183845 
338.500000	70.753229 
339.000000	73.609923 
339.500000	75.544506 
340.000000	76.432336 
340.500000	76.043274 
341.000000	74.150558 
341.500000	71.562033 
342.000000	68.384086 
342.500000	64.892609 
343.000000	60.991228 
343.500000	57.006868 
344.000000	52.915795 
344.500000	49.162096 
345.000000	45.474531 
345.500000	41.646744 
346.000000	37.998438 
346.500000	34.476643 
347.000000	31.440977 
347.500000	28.509885 
348.000000	25.695039 
348.500000	23.000769 
349.000000	20.589127 
349.500000	18.280384 
350.000000	16.078681 
350.500000	14.117085 
351.000000	12.349649 
351.500000	11.050037 
352.000000	9.917881  
352.500000	8.894689  
353.000000	7.925943  
353.500000	7.164971  
354.000000	6.468553  
354.500000	5.682885  
355.000000	5.024628  
355.500000	4.432599  
356.000000	4.092292  
356.500000	3.770938  
357.000000	3.412344  
357.500000	3.087239  
358.000000	2.923090  
358.500000	2.884783  
359.000000	2.828209  
359.500000	2.900423  
360.000000	2.934366  
360.500000	3.021247  
361.000000	3.083408  
361.500000	2.964910  
362.000000	2.663616  
362.500000	2.321083  
363.000000	1.921631  
363.500000	1.533233  
364.000000	1.277092  
364.500000	1.047189  
365.000000	0.923968  
365.500000	0.963608  
366.000000	1.033542  
366.500000	1.065370  
367.000000	1.114882  
367.500000	1.113313  
368.000000	1.090417  
368.500000	1.086289  
369.000000	1.052992  
369.500000	1.036528  
370.000000	1.036788  
370.500000	0.993846  
371.000000	0.957754  
371.500000	0.896680  
372.000000	0.823116  
372.500000	0.722746  
373.000000	0.614826  
373.500000	0.567085  
374.000000	0.631410  
374.500000	0.755466  
375.000000	0.834886  
375.500000	0.913727  
376.000000	1.004669  
376.500000	1.099427  
377.000000	1.108495  
377.500000	1.078505  
378.000000	1.017934  
378.500000	0.981468  
379.000000	0.982036  
379.500000	0.941019  
380.000000	0.917698  
380.500000	0.959755  
381.000000	1.014210  
381.500000	1.065062  
382.000000	1.109517  
382.500000	1.146658  
383.000000	1.171677  
383.500000	1.217118  
384.000000	1.206491  
384.500000	1.176394  
385.000000	1.152704  
385.500000	1.086912  
386.000000	0.984808  
386.500000	0.863002  
387.000000	0.801275  
387.500000	0.772188  
388.000000	0.748250  
388.500000	0.677946  
389.000000	0.687348  
389.500000	0.730346  
390.000000	0.745649  
390.500000	0.742894  
391.000000	0.677505  
391.500000	0.608075  
392.000000	0.566547  
392.500000	0.524167  
393.000000	0.434220  
393.500000	0.422503  
394.000000	0.493575  
394.500000	0.549496  
395.000000	0.605690  
395.500000	0.670151  
396.000000	0.709348  
396.500000	0.759886  
397.000000	0.809114  
397.500000	0.813381  
398.000000	0.791542  
398.500000	0.795123  
399.000000	0.709456  
399.500000	0.604640  
400.000000	0.507675  
400.500000	0.402746  
401.000000	0.294414  
401.500000	0.220143  
402.000000	0.210757  
402.500000	0.227423  
403.000000	0.324101  
403.500000	0.422901  
404.000000	0.524034  
404.500000	0.601043  
405.000000	0.714690  
405.500000	0.818306  
406.000000	0.883735  
406.500000	0.943513  
407.000000	0.919533  
407.500000	0.845117  
408.000000	0.745554  
408.500000	0.614242  
409.000000	0.417642  
409.500000	0.253150  
410.000000	0.189323  
410.500000	0.194078  
411.000000	0.279879  
411.500000	0.384657  
412.000000	0.479927  
412.500000	0.580254  
413.000000	0.663275  
413.500000	0.699287  
414.000000	0.675643  
414.500000	0.671927  
415.000000	0.651509  
415.500000	0.620464  
416.000000	0.585450  
416.500000	0.518994  
417.000000	0.458106  
417.500000	0.405001  
418.000000	0.369662  
418.500000	0.314893  
419.000000	0.305942  
419.500000	0.326630  
420.000000	0.369938  
420.500000	0.435221  
421.000000	0.487515  
421.500000	0.540501  
422.000000	0.592818  
422.500000	0.640897  
423.000000	0.658245  
423.500000	0.647889  
424.000000	0.616578  
424.500000	0.585286  
425.000000	0.546219  
425.500000	0.480120  
426.000000	0.410662  
426.500000	0.367527  
427.000000	0.369599  
427.500000	0.394378  
428.000000	0.414709  
428.500000	0.418714  
429.000000	0.420952  
429.500000	0.419731  
430.000000	0.411232  
430.500000	0.386474  
431.000000	0.362162  
431.500000	0.358822  
432.000000	0.361592  
432.500000	0.375757  
433.000000	0.409241  
433.500000	0.438279  
434.000000	0.456800  
434.500000	0.485765  
435.000000	0.496962  
435.500000	0.505560  
436.000000	0.522119  
436.500000	0.522045  
437.000000	0.512977  
437.500000	0.529677  
438.000000	0.537589  
438.500000	0.515571  
439.000000	0.491114  
439.500000	0.461554  
440.000000	0.446449  
440.500000	0.445929  
441.000000	0.453935  
441.500000	0.455699  
442.000000	0.497046  
442.500000	0.562768  
443.000000	0.616401  
443.500000	0.656088  
444.000000	0.674879  
444.500000	0.675214  

