PE FL                   SPECTRUM    ASCII       PEDS        1.60        
  -1
PM7FC7~1
23/10/10
16:40:32.00
23/10/10
16:40:32.00


444.500000
1









LS55
35.00
5.00
5.00
SCAN
1
20
100
100
0
500
0
2
0
1
7
ON
500 450 
1 0 0
#HDR
-1
-1
#GR
NM

0.00002384185791015625
0.0
300.000000
0.500000
290
8
86.275870
-4.999999
#DATA
300.000000	-4.999999 
300.500000	-4.409290 
301.000000	-3.633198 
301.500000	-2.849040 
302.000000	-1.949402 
302.500000	-0.954109 
303.000000	-0.071471 
303.500000	0.912366  
304.000000	2.079154  
304.500000	3.079942  
305.000000	3.855819  
305.500000	4.840683  
306.000000	5.900945  
306.500000	6.914312  
307.000000	7.947587  
307.500000	8.957676  
308.000000	10.007264 
308.500000	11.250874 
309.000000	12.316291 
309.500000	13.240053 
310.000000	14.215873 
310.500000	15.410285 
311.000000	16.479543 
311.500000	17.433590 
312.000000	18.347094 
312.500000	19.023538 
313.000000	19.428296 
313.500000	19.579693 
314.000000	19.654672 
314.500000	19.635766 
315.000000	19.831189 
315.500000	19.839176 
316.000000	19.857061 
316.500000	20.107060 
317.000000	20.505783 
317.500000	20.581872 
318.000000	20.720646 
318.500000	20.932360 
319.000000	21.198212 
319.500000	21.739338 
320.000000	22.409420 
320.500000	23.141789 
321.000000	24.065299 
321.500000	25.065097 
322.000000	25.745247 
322.500000	26.479196 
323.000000	26.913617 
323.500000	27.057553 
324.000000	27.070034 
324.500000	26.831670 
325.000000	26.427638 
325.500000	26.261021 
326.000000	25.939859 
326.500000	25.679659 
327.000000	25.748048 
327.500000	26.165330 
328.000000	26.779126 
328.500000	27.506958 
329.000000	28.204015 
329.500000	28.661432 
330.000000	29.631852 
330.500000	30.408728 
331.000000	31.224129 
331.500000	31.998744 
332.000000	33.215192 
332.500000	34.882058 
333.000000	37.013371 
333.500000	39.723921 
334.000000	42.613222 
334.500000	46.170079 
335.000000	50.034487 
335.500000	54.301113 
336.000000	58.598799 
336.500000	62.998577 
337.000000	67.524184 
337.500000	71.814356 
338.000000	76.173797 
338.500000	79.977075 
339.000000	82.988152 
339.500000	84.960210 
340.000000	86.113457 
340.500000	86.275870 
341.000000	85.250501 
341.500000	83.118002 
342.000000	79.976693 
342.500000	76.203344 
343.000000	72.094618 
343.500000	67.500964 
344.000000	62.434616 
344.500000	57.304547 
345.000000	52.542016 
345.500000	48.002295 
346.000000	43.651281 
346.500000	39.666805 
347.000000	36.021216 
347.500000	32.757864 
348.000000	29.573412 
348.500000	26.273677 
349.000000	22.988628 
349.500000	19.994932 
350.000000	17.370643 
350.500000	14.994783 
351.000000	13.129693 
351.500000	11.747978 
352.000000	10.853108 
352.500000	10.137741 
353.000000	9.486406  
353.500000	8.728176  
354.000000	7.902639  
354.500000	7.074563  
355.000000	6.204185  
355.500000	5.240079  
356.000000	4.387311  
356.500000	3.741304  
357.000000	3.275374  
357.500000	2.877363  
358.000000	2.520318  
358.500000	2.158168  
359.000000	1.774234  
359.500000	1.393616  
360.000000	1.026907  
360.500000	0.655257  
361.000000	0.377346  
361.500000	0.281523  
362.000000	0.316758  
362.500000	0.469217  
363.000000	0.752695  
363.500000	0.998997  
364.000000	1.139443  
364.500000	1.286704  
365.000000	1.341306  
365.500000	1.231810  
366.000000	1.044257  
366.500000	0.832588  
367.000000	0.634689  
367.500000	0.633185  
368.000000	0.687307  
368.500000	0.625420  
369.000000	0.640994  
369.500000	0.668943  
370.000000	0.728551  
370.500000	0.738701  
371.000000	0.770254  
371.500000	0.771770  
372.000000	0.917296  
372.500000	1.104305  
373.000000	1.166249  
373.500000	1.161641  
374.000000	1.056931  
374.500000	0.966429  
375.000000	0.778586  
375.500000	0.589502  
376.000000	0.390126  
376.500000	0.342715  
377.000000	0.363335  
377.500000	0.430884  
378.000000	0.510764  
378.500000	0.533292  
379.000000	0.594915  
379.500000	0.615349  
380.000000	0.628995  
380.500000	0.646970  
381.000000	0.717012  
381.500000	0.808238  
382.000000	0.911732  
382.500000	0.968097  
383.000000	0.954318  
383.500000	0.926220  
384.000000	0.859969  
384.500000	0.771215  
385.000000	0.703027  
385.500000	0.615603  
386.000000	0.570397  
386.500000	0.570915  
387.000000	0.569182  
387.500000	0.561129  
388.000000	0.572052  
388.500000	0.577556  
389.000000	0.562591  
389.500000	0.584124  
390.000000	0.514520  
390.500000	0.460756  
391.000000	0.430105  
391.500000	0.420140  
392.000000	0.419658  
392.500000	0.427893  
393.000000	0.481947  
393.500000	0.547075  
394.000000	0.653626  
394.500000	0.706695  
395.000000	0.741805  
395.500000	0.746129  
396.000000	0.805818  
396.500000	0.869668  
397.000000	0.909652  
397.500000	0.931411  
398.000000	0.933364  
398.500000	0.925436  
399.000000	0.850493  
399.500000	0.719937  
400.000000	0.576947  
400.500000	0.502825  
401.000000	0.496340  
401.500000	0.538142  
402.000000	0.583037  
402.500000	0.650778  
403.000000	0.747482  
403.500000	0.783429  
404.000000	0.751576  
404.500000	0.698304  
405.000000	0.660308  
405.500000	0.632165  
406.000000	0.647916  
406.500000	0.685009  
407.000000	0.736453  
407.500000	0.819912  
408.000000	0.848881  
408.500000	0.797412  
409.000000	0.752131  
409.500000	0.700242  
410.000000	0.627871  
410.500000	0.544124  
411.000000	0.498241  
411.500000	0.468059  
412.000000	0.476469  
412.500000	0.491508  
413.000000	0.481537  
413.500000	0.489844  
414.000000	0.519643  
414.500000	0.545898  
415.000000	0.526393  
415.500000	0.518335  
416.000000	0.518505  
416.500000	0.521503  
417.000000	0.517736  
417.500000	0.495237  
418.000000	0.474157  
418.500000	0.492747  
419.000000	0.528950  
419.500000	0.533797  
420.000000	0.534312  
420.500000	0.525985  
421.000000	0.506970  
421.500000	0.475057  
422.000000	0.451164  
422.500000	0.419065  
423.000000	0.435463  
423.500000	0.498692  
424.000000	0.544737  
424.500000	0.576195  
425.000000	0.595996  
425.500000	0.594070  
426.000000	0.566417  
426.500000	0.529267  
427.000000	0.474091  
427.500000	0.449449  
428.000000	0.477407  
428.500000	0.511885  
429.000000	0.555730  
429.500000	0.612991  
430.000000	0.656838  
430.500000	0.692621  
431.000000	0.715688  
431.500000	0.713101  
432.000000	0.696176  
432.500000	0.691519  
433.000000	0.681388  
433.500000	0.671520  
434.000000	0.658558  
434.500000	0.652092  
435.000000	0.639717  
435.500000	0.620374  
436.000000	0.612010  
436.500000	0.611177  
437.000000	0.616130  
437.500000	0.622513  
438.000000	0.629409  
438.500000	0.618676  
439.000000	0.606319  
439.500000	0.582438  
440.000000	0.544909  
440.500000	0.513413  
441.000000	0.496132  
441.500000	0.480982  
442.000000	0.477245  
442.500000	0.483191  
443.000000	0.495153  
443.500000	0.515313  
444.000000	0.544025  
444.500000	0.565585  

