PE FL                   SPECTRUM    ASCII       PEDS        1.60        
  -1
PM0FD7~1
23/10/10
16:42:14.00
23/10/10
16:42:14.00


444.500000
1









LS55
50.00
5.00
5.00
SCAN
1
20
100
100
0
500
0
2
0
1
7
ON
500 450 
1 0 0
#HDR
-1
-1
#GR
NM

0.00002384185791015625
0.0
300.000000
0.500000
290
8
52.419149
0.296143
#DATA
300.000000	24.966000 
300.500000	24.028310 
301.000000	23.225912 
301.500000	23.025081 
302.000000	22.891224 
302.500000	22.836728 
303.000000	22.820199 
303.500000	23.228532 
304.000000	23.199792 
304.500000	23.030599 
305.000000	22.648666 
305.500000	22.190991 
306.000000	22.232534 
306.500000	22.682759 
307.000000	23.362199 
307.500000	24.049644 
308.000000	25.114496 
308.500000	26.014754 
309.000000	26.640861 
309.500000	26.793764 
310.000000	26.347649 
310.500000	25.596720 
311.000000	24.792922 
311.500000	23.938832 
312.000000	23.155501 
312.500000	22.599269 
313.000000	22.156392 
313.500000	21.849755 
314.000000	21.802267 
314.500000	21.730806 
315.000000	21.652082 
315.500000	21.465085 
316.000000	21.276609 
316.500000	21.110823 
317.000000	20.930101 
317.500000	20.649469 
318.000000	19.991323 
318.500000	19.562781 
319.000000	19.492098 
319.500000	19.707769 
320.000000	19.927700 
320.500000	20.418444 
321.000000	20.977699 
321.500000	21.573947 
322.000000	22.099502 
322.500000	21.948227 
323.000000	21.299156 
323.500000	20.287065 
324.000000	19.381233 
324.500000	18.306705 
325.000000	17.639221 
325.500000	17.272269 
326.000000	17.189649 
326.500000	17.503781 
327.000000	17.843529 
327.500000	17.948240 
328.000000	17.669648 
328.500000	17.330795 
329.000000	16.909058 
329.500000	16.655766 
330.000000	16.692655 
330.500000	16.967762 
331.000000	17.653436 
331.500000	18.904113 
332.000000	20.402755 
332.500000	22.014270 
333.000000	23.697768 
333.500000	25.708867 
334.000000	27.938126 
334.500000	30.376564 
335.000000	33.038774 
335.500000	35.760005 
336.000000	38.822712 
336.500000	41.732355 
337.000000	44.602934 
337.500000	46.952844 
338.000000	49.136421 
338.500000	50.974368 
339.000000	51.953091 
339.500000	52.419149 
340.000000	52.053783 
340.500000	51.193134 
341.000000	49.684121 
341.500000	47.843462 
342.000000	45.594821 
342.500000	43.210919 
343.000000	40.945351 
343.500000	38.344048 
344.000000	36.069183 
344.500000	33.782021 
345.000000	31.381346 
345.500000	28.798370 
346.000000	26.174348 
346.500000	23.645485 
347.000000	21.131261 
347.500000	18.802664 
348.000000	16.432268 
348.500000	14.502577 
349.000000	13.062977 
349.500000	11.736557 
350.000000	10.591849 
350.500000	9.554039  
351.000000	8.753287  
351.500000	7.988128  
352.000000	7.222624  
352.500000	6.445630  
353.000000	5.829854  
353.500000	5.443392  
354.000000	5.041413  
354.500000	4.684417  
355.000000	4.340035  
355.500000	3.883754  
356.000000	3.325492  
356.500000	2.759454  
357.000000	2.233938  
357.500000	1.886827  
358.000000	1.741055  
358.500000	1.731204  
359.000000	1.887569  
359.500000	2.186328  
360.000000	2.387681  
360.500000	2.338998  
361.000000	2.169194  
361.500000	1.803424  
362.000000	1.436267  
362.500000	1.127695  
363.000000	0.989080  
363.500000	1.035489  
364.000000	1.219593  
364.500000	1.474259  
365.000000	1.631517  
365.500000	1.743229  
366.000000	1.723958  
366.500000	1.686877  
367.000000	1.553527  
367.500000	1.478979  
368.000000	1.541831  
368.500000	1.645728  
369.000000	1.775223  
369.500000	1.880664  
370.000000	1.867426  
370.500000	1.790171  
371.000000	1.739235  
371.500000	1.645894  
372.000000	1.569260  
372.500000	1.557727  
373.000000	1.532161  
373.500000	1.540678  
374.000000	1.639219  
374.500000	1.725357  
375.000000	1.785853  
375.500000	1.848977  
376.000000	1.896362  
376.500000	1.982718  
377.000000	2.004334  
377.500000	1.934332  
378.000000	1.824233  
378.500000	1.731396  
379.000000	1.705124  
379.500000	1.677082  
380.000000	1.622787  
380.500000	1.545549  
381.000000	1.588603  
381.500000	1.572775  
382.000000	1.483244  
382.500000	1.384284  
383.000000	1.280351  
383.500000	1.226964  
384.000000	1.216240  
384.500000	1.207556  
385.000000	1.194892  
385.500000	1.292096  
386.000000	1.341561  
386.500000	1.366970  
387.000000	1.384171  
387.500000	1.448431  
388.000000	1.535900  
388.500000	1.644962  
389.000000	1.708313  
389.500000	1.744820  
390.000000	1.823591  
390.500000	1.852607  
391.000000	1.838394  
391.500000	1.751677  
392.000000	1.639769  
392.500000	1.501798  
393.000000	1.371162  
393.500000	1.218470  
394.000000	1.109557  
394.500000	1.081555  
395.000000	1.117300  
395.500000	1.216474  
396.000000	1.307736  
396.500000	1.392156  
397.000000	1.425705  
397.500000	1.372859  
398.000000	1.279562  
398.500000	1.203814  
399.000000	1.155300  
399.500000	1.164846  
400.000000	1.196793  
400.500000	1.213557  
401.000000	1.244758  
401.500000	1.232038  
402.000000	1.118815  
402.500000	1.016005  
403.000000	0.931748  
403.500000	0.832539  
404.000000	0.812086  
404.500000	0.861519  
405.000000	0.940908  
405.500000	1.060961  
406.000000	1.180756  
406.500000	1.205856  
407.000000	1.220313  
407.500000	1.218707  
408.000000	1.138993  
408.500000	1.055972  
409.000000	1.000110  
409.500000	0.941500  
410.000000	0.927789  
410.500000	0.937248  
411.000000	0.935630  
411.500000	0.936773  
412.000000	0.922853  
412.500000	0.878231  
413.000000	0.800031  
413.500000	0.747047  
414.000000	0.681618  
414.500000	0.655684  
415.000000	0.627310  
415.500000	0.647773  
416.000000	0.694561  
416.500000	0.725529  
417.000000	0.758285  
417.500000	0.741106  
418.000000	0.750768  
418.500000	0.758487  
419.000000	0.811362  
419.500000	0.839563  
420.000000	0.874590  
420.500000	0.912919  
421.000000	0.936089  
421.500000	0.945321  
422.000000	0.879406  
422.500000	0.783476  
423.000000	0.680571  
423.500000	0.580187  
424.000000	0.475349  
424.500000	0.378535  
425.000000	0.310784  
425.500000	0.296143  
426.000000	0.310057  
426.500000	0.323577  
427.000000	0.376582  
427.500000	0.450741  
428.000000	0.515157  
428.500000	0.570573  
429.000000	0.595404  
429.500000	0.587527  
430.000000	0.570009  
430.500000	0.527912  
431.000000	0.465796  
431.500000	0.431489  
432.000000	0.418362  
432.500000	0.409926  
433.000000	0.437174  
433.500000	0.475597  
434.000000	0.505289  
434.500000	0.540265  
435.000000	0.557816  
435.500000	0.567942  
436.000000	0.588709  
436.500000	0.605229  
437.000000	0.595199  
437.500000	0.593871  
438.000000	0.613121  
438.500000	0.623156  
439.000000	0.626756  
439.500000	0.604423  
440.000000	0.585937  
440.500000	0.563906  
441.000000	0.539716  
441.500000	0.495430  
442.000000	0.457252  
442.500000	0.435503  
443.000000	0.421435  
443.500000	0.419951  
444.000000	0.409613  
444.500000	0.413015  

