PE FL                   SPECTRUM    ASCII       PEDS        1.60        
  -1
PM2A5E~1
23/10/12
11:52:24.00
23/10/12
11:52:24.00


444.500000
1









LS55
30.00
5.00
5.00
SCAN
1
20
100
500
0
500
0
2
0
1
7
ON
500 450 
1 0 0
#HDR
-1
-1
#GR
NM

0.00002384185791015625
0.0
250.000000
0.500000
390
8
6.672291
-5.413503
#DATA
250.000000	-3.484999 
250.500000	-2.536231 
251.000000	-1.987249 
251.500000	-1.483343 
252.000000	-1.248603 
252.500000	-1.182920 
253.000000	-1.383745 
253.500000	-1.694313 
254.000000	-2.259006 
254.500000	-2.757025 
255.000000	-3.098239 
255.500000	-3.686240 
256.000000	-4.251612 
256.500000	-4.835436 
257.000000	-5.276949 
257.500000	-5.413503 
258.000000	-5.067794 
258.500000	-4.344079 
259.000000	-3.303703 
259.500000	-2.151565 
260.000000	-0.966727 
260.500000	0.118415  
261.000000	0.640450  
261.500000	0.633378  
262.000000	0.255671  
262.500000	-0.264864 
263.000000	-0.739801 
263.500000	-1.097645 
264.000000	-1.775939 
264.500000	-2.241856 
265.000000	-2.238678 
265.500000	-2.126843 
266.000000	-2.079384 
266.500000	-2.045077 
267.000000	-1.872702 
267.500000	-1.608038 
268.000000	-1.140221 
268.500000	-1.074165 
269.000000	-1.315769 
269.500000	-1.820584 
270.000000	-2.164516 
270.500000	-2.453439 
271.000000	-2.659430 
271.500000	-2.743173 
272.000000	-2.749760 
272.500000	-2.470424 
273.000000	-1.944434 
273.500000	-1.523854 
274.000000	-1.649177 
274.500000	-1.896635 
275.000000	-2.100292 
275.500000	-2.224713 
276.000000	-2.212836 
276.500000	-2.120981 
277.000000	-1.985847 
277.500000	-1.537828 
278.000000	-0.982225 
278.500000	-0.771808 
279.000000	-0.895230 
279.500000	-1.294554 
280.000000	-1.627311 
280.500000	-1.748240 
281.000000	-1.765713 
281.500000	-1.462236 
282.000000	-0.910844 
282.500000	-0.167236 
283.000000	0.489101  
283.500000	0.678733  
284.000000	0.318147  
284.500000	0.092621  
285.000000	-0.061105 
285.500000	-0.099489 
286.000000	0.256504  
286.500000	0.725665  
287.000000	1.601052  
287.500000	2.283394  
288.000000	2.528898  
288.500000	1.996633  
289.000000	1.684126  
289.500000	1.165992  
290.000000	0.945532  
290.500000	0.914373  
291.000000	0.886149  
291.500000	1.224836  
292.000000	1.710091  
292.500000	2.041080  
293.000000	2.044717  
293.500000	2.251430  
294.000000	2.110196  
294.500000	2.354206  
295.000000	2.455863  
295.500000	2.384968  
296.000000	2.097318  
296.500000	1.667324  
297.000000	0.947132  
297.500000	0.415327  
298.000000	0.062472  
298.500000	-0.247070 
299.000000	0.016908  
299.500000	0.532468  
300.000000	1.344286  
300.500000	2.095980  
301.000000	2.752227  
301.500000	2.927798  
302.000000	3.063773  
302.500000	2.839050  
303.000000	2.630423  
303.500000	2.338580  
304.000000	2.146345  
304.500000	2.449733  
305.000000	3.216510  
305.500000	4.082435  
306.000000	4.900634  
306.500000	5.605438  
307.000000	5.939867  
307.500000	6.283377  
308.000000	6.224652  
308.500000	5.690679  
309.000000	5.222617  
309.500000	5.127696  
310.000000	5.048664  
310.500000	5.205629  
311.000000	5.388894  
311.500000	5.414062  
312.000000	5.686336  
312.500000	5.964627  
313.000000	6.023414  
313.500000	5.950871  
314.000000	6.121536  
314.500000	6.102218  
315.000000	6.106636  
315.500000	6.168791  
316.000000	6.239594  
316.500000	6.222856  
317.000000	6.346548  
317.500000	6.573124  
318.000000	6.595928  
318.500000	6.672291  
319.000000	6.403515  
319.500000	5.793286  
320.000000	5.106016  
320.500000	4.584536  
321.000000	4.044979  
321.500000	3.702227  
322.000000	3.701988  
322.500000	3.883506  
323.000000	4.452250  
323.500000	4.998269  
324.000000	5.302614  
324.500000	5.360181  
325.000000	5.409977  
325.500000	5.223488  
326.000000	5.034650  
326.500000	4.772159  
327.000000	4.503429  
327.500000	4.418859  
328.000000	4.437439  
328.500000	4.508983  
329.000000	4.386636  
329.500000	4.254578  
330.000000	3.995285  
330.500000	3.672374  
331.000000	3.212301  
331.500000	2.704671  
332.000000	2.396542  
332.500000	2.187394  
333.000000	2.203118  
333.500000	2.223107  
334.000000	2.426705  
334.500000	2.640454  
335.000000	2.793252  
335.500000	2.918351  
336.000000	2.974188  
336.500000	3.160984  
337.000000	3.317895  
337.500000	3.537133  
338.000000	3.565462  
338.500000	3.558233  
339.000000	3.494073  
339.500000	3.271192  
340.000000	2.925658  
340.500000	2.500159  
341.000000	2.088219  
341.500000	1.754017  
342.000000	1.614326  
342.500000	1.488926  
343.000000	1.503168  
343.500000	1.561837  
344.000000	1.692686  
344.500000	1.874068  
345.000000	2.058862  
345.500000	2.170933  
346.000000	2.186188  
346.500000	2.116200  
347.000000	1.862344  
347.500000	1.682580  
348.000000	1.513078  
348.500000	1.318477  
349.000000	1.135422  
349.500000	1.126065  
350.000000	1.143410  
350.500000	1.267205  
351.000000	1.327500  
351.500000	1.239836  
352.000000	1.218919  
352.500000	1.305699  
353.000000	1.318556  
353.500000	1.254785  
354.000000	1.255443  
354.500000	1.232630  
355.000000	1.412883  
355.500000	1.547953  
356.000000	1.573897  
356.500000	1.467434  
357.000000	1.483133  
357.500000	1.496918  
358.000000	1.412868  
358.500000	1.298698  
359.000000	1.057292  
359.500000	0.962885  
360.000000	0.865507  
360.500000	0.845855  
361.000000	0.751405  
361.500000	0.758054  
362.000000	0.872966  
362.500000	1.020294  
363.000000	1.173411  
363.500000	1.312185  
364.000000	1.567574  
364.500000	1.848528  
365.000000	2.049093  
365.500000	2.065699  
366.000000	1.984698  
366.500000	1.902308  
367.000000	1.772902  
367.500000	1.639716  
368.000000	1.519634  
368.500000	1.434176  
369.000000	1.399265  
369.500000	1.346828  
370.000000	1.252063  
370.500000	1.120626  
371.000000	1.063503  
371.500000	1.006102  
372.000000	1.003347  
372.500000	1.130803  
373.000000	1.334371  
373.500000	1.593114  
374.000000	1.896827  
374.500000	2.184188  
375.000000	2.427076  
375.500000	2.733933  
376.000000	2.965091  
376.500000	3.069494  
377.000000	3.131318  
377.500000	3.145567  
378.000000	2.998871  
378.500000	2.766569  
379.000000	2.449000  
379.500000	2.146993  
380.000000	2.020406  
380.500000	2.017165  
381.000000	2.015520  
381.500000	2.029807  
382.000000	2.168595  
382.500000	2.264920  
383.000000	2.276275  
383.500000	2.232345  
384.000000	2.176465  
384.500000	2.193357  
385.000000	2.244601  
385.500000	2.226981  
386.000000	2.165638  
386.500000	2.189672  
387.000000	2.138435  
387.500000	1.987261  
388.000000	1.788978  
388.500000	1.624248  
389.000000	1.511680  
389.500000	1.483443  
390.000000	1.543636  
390.500000	1.635878  
391.000000	1.865476  
391.500000	2.104283  
392.000000	2.293421  
392.500000	2.420558  
393.000000	2.467566  
393.500000	2.414473  
394.000000	2.264135  
394.500000	2.084585  
395.000000	1.875336  
395.500000	1.721860  
396.000000	1.599775  
396.500000	1.550449  
397.000000	1.562541  
397.500000	1.668433  
398.000000	1.787600  
398.500000	1.879471  
399.000000	1.983018  
399.500000	2.031579  
400.000000	2.053832  
400.500000	2.030044  
401.000000	1.945261  
401.500000	1.821808  
402.000000	1.718863  
402.500000	1.599054  
403.000000	1.473777  
403.500000	1.384486  
404.000000	1.342245  
404.500000	1.350613  
405.000000	1.387118  
405.500000	1.457245  
406.000000	1.562131  
406.500000	1.728890  
407.000000	1.870228  
407.500000	1.960408  
408.000000	2.002527  
408.500000	2.019437  
409.000000	1.996526  
409.500000	1.949710  
410.000000	1.856076  
410.500000	1.745808  
411.000000	1.673518  
411.500000	1.592235  
412.000000	1.508934  
412.500000	1.420165  
413.000000	1.357299  
413.500000	1.343174  
414.000000	1.389646  
414.500000	1.458346  
415.000000	1.545211  
415.500000	1.672255  
416.000000	1.789527  
416.500000	1.847823  
417.000000	1.841411  
417.500000	1.791555  
418.000000	1.733243  
418.500000	1.655814  
419.000000	1.584549  
419.500000	1.499464  
420.000000	1.443049  
420.500000	1.412016  
421.000000	1.367325  
421.500000	1.310073  
422.000000	1.264173  
422.500000	1.272595  
423.000000	1.286587  
423.500000	1.328894  
424.000000	1.347409  
424.500000	1.365400  
425.000000	1.358935  
425.500000	1.328551  
426.000000	1.300740  
426.500000	1.278463  
427.000000	1.294148  
427.500000	1.326082  
428.000000	1.377259  
428.500000	1.402974  
429.000000	1.409788  
429.500000	1.359490  
430.000000	1.248773  
430.500000	1.125850  
431.000000	0.991801  
431.500000	0.890856  
432.000000	0.840206  
432.500000	0.843415  
433.000000	0.871000  
433.500000	0.944861  
434.000000	1.040659  
434.500000	1.139587  
435.000000	1.229732  
435.500000	1.284943  
436.000000	1.322888  
436.500000	1.343090  
437.000000	1.337213  
437.500000	1.292156  
438.000000	1.228050  
438.500000	1.146350  
439.000000	1.081039  
439.500000	1.014033  
440.000000	0.969443  
440.500000	0.940726  
441.000000	0.939356  
441.500000	0.963215  
442.000000	0.985519  
442.500000	1.029062  
443.000000	1.057999  
443.500000	1.101702  
444.000000	1.118504  
444.500000	1.130214  

