PE FL                   SPECTRUM    ASCII       PEDS        1.60        
  -1
PM2A1E~1
23/10/12
11:49:43.00
23/10/12
11:49:43.00


444.500000
1









LS55
10.00
5.00
5.00
SCAN
1
20
100
500
0
500
0
2
0
1
7
ON
500 450 
1 0 0
#HDR
-1
-1
#GR
NM

0.00002384185791015625
0.0
250.000000
0.500000
390
8
4.326786
-5.000000
#DATA
250.000000	-5.000000 
250.500000	-3.434272 
251.000000	-2.135622 
251.500000	-1.490061 
252.000000	-1.311121 
252.500000	-1.625180 
253.000000	-2.228298 
253.500000	-2.912549 
254.000000	-3.441114 
254.500000	-3.748051 
255.000000	-3.897834 
255.500000	-3.731438 
256.000000	-3.671425 
256.500000	-3.349538 
257.000000	-3.277734 
257.500000	-3.018224 
258.000000	-2.613313 
258.500000	-2.242621 
259.000000	-1.920487 
259.500000	-1.846214 
260.000000	-1.662500 
260.500000	-1.881187 
261.000000	-2.140944 
261.500000	-2.745317 
262.000000	-2.836000 
262.500000	-2.518334 
263.000000	-1.859926 
263.500000	-1.047165 
264.000000	-0.438478 
264.500000	0.080324  
265.000000	0.307405  
265.500000	0.081645  
266.000000	-0.835599 
266.500000	-1.602689 
267.000000	-2.644915 
267.500000	-2.956825 
268.000000	-2.688568 
268.500000	-2.118591 
269.000000	-1.359561 
269.500000	-0.374375 
270.000000	0.262617  
270.500000	0.540784  
271.000000	0.755983  
271.500000	-0.009127 
272.000000	-1.167606 
272.500000	-1.979571 
273.000000	-2.563516 
273.500000	-2.906688 
274.000000	-2.646234 
274.500000	-2.191729 
275.000000	-1.280490 
275.500000	0.377373  
276.000000	1.601653  
276.500000	2.066781  
277.000000	2.476528  
277.500000	2.476612  
278.000000	2.458542  
278.500000	2.555380  
279.000000	2.299783  
279.500000	1.902876  
280.000000	1.595926  
280.500000	1.325142  
281.000000	0.556973  
281.500000	-0.152943 
282.000000	-1.207706 
282.500000	-2.024279 
283.000000	-2.355650 
283.500000	-2.319828 
284.000000	-1.794124 
284.500000	-0.898995 
285.000000	0.056408  
285.500000	0.876324  
286.000000	1.574510  
286.500000	1.533446  
287.000000	0.945458  
287.500000	-0.003713 
288.000000	-1.229196 
288.500000	-2.150894 
289.000000	-2.966929 
289.500000	-3.532568 
290.000000	-3.740714 
290.500000	-3.421310 
291.000000	-2.826707 
291.500000	-2.258505 
292.000000	-1.701673 
292.500000	-1.124746 
293.000000	-0.511856 
293.500000	0.096462  
294.000000	0.596266  
294.500000	0.994481  
295.000000	1.212778  
295.500000	1.170194  
296.000000	0.488221  
296.500000	-0.478202 
297.000000	-1.280707 
297.500000	-1.877598 
298.000000	-2.064545 
298.500000	-1.973964 
299.000000	-1.680087 
299.500000	-0.943495 
300.000000	-0.183474 
300.500000	0.095038  
301.000000	-0.170714 
301.500000	-0.459164 
302.000000	-0.969236 
302.500000	-1.372556 
303.000000	-1.696070 
303.500000	-2.123311 
304.000000	-1.918511 
304.500000	-1.619386 
305.000000	-1.394410 
305.500000	-1.216509 
306.000000	-0.797545 
306.500000	-0.320737 
307.000000	0.356783  
307.500000	1.354528  
308.000000	2.179288  
308.500000	3.302602  
309.000000	4.039259  
309.500000	4.326786  
310.000000	4.181890  
310.500000	3.915171  
311.000000	3.316257  
311.500000	2.368519  
312.000000	1.555458  
312.500000	0.878322  
313.000000	0.779747  
313.500000	0.880409  
314.000000	0.922683  
314.500000	1.158363  
315.000000	1.628870  
315.500000	2.242451  
316.000000	2.516431  
316.500000	2.703966  
317.000000	3.014214  
317.500000	3.417177  
318.000000	3.679391  
318.500000	3.425187  
319.000000	2.884276  
319.500000	2.326899  
320.000000	1.942638  
320.500000	1.390090  
321.000000	0.721000  
321.500000	0.403551  
322.000000	0.593313  
322.500000	1.021490  
323.000000	1.359809  
323.500000	1.523352  
324.000000	1.584809  
324.500000	1.666641  
325.000000	1.670713  
325.500000	1.321548  
326.000000	1.011496  
326.500000	1.128776  
327.000000	1.365819  
327.500000	1.792988  
328.000000	2.110432  
328.500000	2.396663  
329.000000	2.660922  
329.500000	2.926919  
330.000000	3.042401  
330.500000	3.118182  
331.000000	3.257270  
331.500000	3.224531  
332.000000	3.192936  
332.500000	3.100481  
333.000000	2.853120  
333.500000	2.551391  
334.000000	2.239681  
334.500000	1.813261  
335.000000	1.556464  
335.500000	1.485862  
336.000000	1.473172  
336.500000	1.631681  
337.000000	1.984335  
337.500000	2.309938  
338.000000	2.650963  
338.500000	2.870243  
339.000000	2.784273  
339.500000	2.723308  
340.000000	2.594047  
340.500000	2.381431  
341.000000	2.022525  
341.500000	1.758363  
342.000000	1.479047  
342.500000	1.337623  
343.000000	1.183822  
343.500000	0.897545  
344.000000	0.739078  
344.500000	0.737736  
345.000000	0.819220  
345.500000	0.844358  
346.000000	1.074625  
346.500000	1.366722  
347.000000	1.759966  
347.500000	2.036054  
348.000000	2.126730  
348.500000	2.124470  
349.000000	1.967475  
349.500000	1.719666  
350.000000	1.350965  
350.500000	1.111191  
351.000000	0.952359  
351.500000	0.918900  
352.000000	1.007858  
352.500000	1.281478  
353.000000	1.660337  
353.500000	2.020968  
354.000000	2.307211  
354.500000	2.511004  
355.000000	2.686350  
355.500000	2.821421  
356.000000	2.800153  
356.500000	2.729399  
357.000000	2.673986  
357.500000	2.601613  
358.000000	2.422989  
358.500000	2.144716  
359.000000	1.933580  
359.500000	1.800223  
360.000000	1.663403  
360.500000	1.545952  
361.000000	1.495192  
361.500000	1.493177  
362.000000	1.578721  
362.500000	1.574242  
363.000000	1.527558  
363.500000	1.443143  
364.000000	1.427129  
364.500000	1.477773  
365.000000	1.590540  
365.500000	1.718194  
366.000000	1.750057  
366.500000	1.851202  
367.000000	2.013906  
367.500000	2.189504  
368.000000	2.305156  
368.500000	2.404478  
369.000000	2.511595  
369.500000	2.685552  
370.000000	2.821383  
370.500000	2.812254  
371.000000	2.661377  
371.500000	2.552474  
372.000000	2.411653  
372.500000	2.276007  
373.000000	2.129058  
373.500000	2.035912  
374.000000	2.005985  
374.500000	2.048994  
375.000000	2.146341  
375.500000	2.111584  
376.000000	2.133760  
376.500000	2.121628  
377.000000	2.154887  
377.500000	2.194663  
378.000000	2.217107  
378.500000	2.203950  
379.000000	2.210109  
379.500000	2.280695  
380.000000	2.292918  
380.500000	2.258300  
381.000000	2.192746  
381.500000	2.083584  
382.000000	2.012637  
382.500000	1.845791  
383.000000	1.682656  
383.500000	1.588475  
384.000000	1.557430  
384.500000	1.578588  
385.000000	1.614238  
385.500000	1.687979  
386.000000	1.757317  
386.500000	1.901824  
387.000000	1.974826  
387.500000	2.020609  
388.000000	2.054094  
388.500000	2.054361  
389.000000	2.015659  
389.500000	1.974743  
390.000000	1.913940  
390.500000	1.808407  
391.000000	1.728212  
391.500000	1.689401  
392.000000	1.734136  
392.500000	1.849321  
393.000000	2.001757  
393.500000	2.138754  
394.000000	2.243864  
394.500000	2.302484  
395.000000	2.290838  
395.500000	2.191935  
396.000000	2.092131  
396.500000	2.009566  
397.000000	1.971041  
397.500000	2.037046  
398.000000	2.144967  
398.500000	2.254050  
399.000000	2.366084  
399.500000	2.387175  
400.000000	2.321594  
400.500000	2.170878  
401.000000	2.013951  
401.500000	1.831803  
402.000000	1.726890  
402.500000	1.671035  
403.000000	1.673522  
403.500000	1.745373  
404.000000	1.808967  
404.500000	1.855319  
405.000000	1.866720  
405.500000	1.904143  
406.000000	1.916025  
406.500000	1.924169  
407.000000	1.902795  
407.500000	1.884686  
408.000000	1.885461  
408.500000	1.890327  
409.000000	1.861377  
409.500000	1.778984  
410.000000	1.788483  
410.500000	1.844096  
411.000000	1.923573  
411.500000	2.010876  
412.000000	2.112687  
412.500000	2.202454  
413.000000	2.307227  
413.500000	2.360898  
414.000000	2.297663  
414.500000	2.194090  
415.000000	2.090872  
415.500000	1.971522  
416.000000	1.881686  
416.500000	1.820578  
417.000000	1.767553  
417.500000	1.812186  
418.000000	1.919265  
418.500000	1.968197  
419.000000	1.970246  
419.500000	1.956501  
420.000000	1.915245  
420.500000	1.860065  
421.000000	1.802500  
421.500000	1.702835  
422.000000	1.658076  
422.500000	1.655302  
423.000000	1.681837  
423.500000	1.691525  
424.000000	1.699528  
424.500000	1.700574  
425.000000	1.712390  
425.500000	1.743237  
426.000000	1.753019  
426.500000	1.759447  
427.000000	1.741359  
427.500000	1.710108  
428.000000	1.663338  
428.500000	1.593287  
429.000000	1.502499  
429.500000	1.421522  
430.000000	1.386023  
430.500000	1.404441  
431.000000	1.457190  
431.500000	1.523917  
432.000000	1.589751  
432.500000	1.655442  
433.000000	1.699797  
433.500000	1.697528  
434.000000	1.660484  
434.500000	1.607266  
435.000000	1.551227  
435.500000	1.498139  
436.000000	1.469289  
436.500000	1.448032  
437.000000	1.440754  
437.500000	1.444576  
438.000000	1.455838  
438.500000	1.477712  
439.000000	1.503894  
439.500000	1.512027  
440.000000	1.511348  
440.500000	1.511578  
441.000000	1.508691  
441.500000	1.511282  
442.000000	1.502729  
442.500000	1.488953  
443.000000	1.474525  
443.500000	1.470934  
444.000000	1.461926  
444.500000	1.448871  

