PE FL                   SPECTRUM    ASCII       PEDS        1.60        
  -1
PM2A3E~1
23/10/12
11:51:04.00
23/10/12
11:51:04.00


444.500000
1









LS55
20.00
5.00
5.00
SCAN
1
20
100
500
0
500
0
2
0
1
7
ON
500 450 
1 0 0
#HDR
-1
-1
#GR
NM

0.00002384185791015625
0.0
250.000000
0.500000
390
8
3.847447
-5.014731
#DATA
250.000000	-5.000000 
250.500000	-2.545096 
251.000000	-0.937989 
251.500000	0.079932  
252.000000	0.895362  
252.500000	1.500567  
253.000000	1.420375  
253.500000	0.419036  
254.000000	-0.908171 
254.500000	-1.895465 
255.000000	-2.416837 
255.500000	-3.011772 
256.000000	-3.469156 
256.500000	-3.675236 
257.000000	-3.550902 
257.500000	-3.247084 
258.000000	-3.254983 
258.500000	-3.427402 
259.000000	-3.676238 
259.500000	-3.747751 
260.000000	-3.244497 
260.500000	-2.145245 
261.000000	-0.680059 
261.500000	0.835250  
262.000000	2.318123  
262.500000	3.334713  
263.000000	3.847447  
263.500000	3.392064  
264.000000	1.803124  
264.500000	0.088776  
265.000000	-1.614517 
265.500000	-3.078302 
266.000000	-4.252661 
266.500000	-4.842509 
267.000000	-5.014731 
267.500000	-4.634389 
268.000000	-4.028013 
268.500000	-3.758882 
269.000000	-3.497322 
269.500000	-3.328624 
270.000000	-3.297360 
270.500000	-3.526485 
271.000000	-3.898124 
271.500000	-4.315419 
272.000000	-4.454358 
272.500000	-4.456078 
273.000000	-4.166547 
273.500000	-3.704589 
274.000000	-2.992751 
274.500000	-2.020295 
275.000000	-1.023162 
275.500000	-0.191516 
276.000000	0.424953  
276.500000	1.094742  
277.000000	1.708459  
277.500000	2.101074  
278.000000	2.021847  
278.500000	1.865094  
279.000000	1.741519  
279.500000	1.605024  
280.000000	1.284130  
280.500000	0.717499  
281.000000	0.011399  
281.500000	-0.573482 
282.000000	-1.090825 
282.500000	-1.717137 
283.000000	-2.219245 
283.500000	-2.562211 
284.000000	-2.772066 
284.500000	-2.945660 
285.000000	-3.072384 
285.500000	-3.351341 
286.000000	-3.472887 
286.500000	-3.537083 
287.000000	-3.452778 
287.500000	-3.136887 
288.000000	-2.504156 
288.500000	-1.787677 
289.000000	-1.119478 
289.500000	-0.577179 
290.000000	0.044902  
290.500000	0.521814  
291.000000	0.542805  
291.500000	0.431196  
292.000000	0.226778  
292.500000	0.236895  
293.000000	0.465692  
293.500000	0.536881  
294.000000	0.296700  
294.500000	0.233574  
295.000000	0.412344  
295.500000	0.427794  
296.000000	0.340675  
296.500000	0.337630  
297.000000	0.299129  
297.500000	0.556766  
298.000000	0.600728  
298.500000	0.451585  
299.000000	0.288890  
299.500000	0.507743  
300.000000	0.627503  
300.500000	0.563197  
301.000000	0.836359  
301.500000	1.022785  
302.000000	1.338431  
302.500000	1.497348  
303.000000	1.636588  
303.500000	1.745336  
304.000000	2.132426  
304.500000	2.211671  
305.000000	1.909033  
305.500000	1.812305  
306.000000	1.940049  
306.500000	1.913182  
307.000000	1.620628  
307.500000	1.174808  
308.000000	0.903072  
308.500000	1.038910  
309.000000	1.012451  
309.500000	0.618668  
310.000000	0.145029  
310.500000	0.059657  
311.000000	-0.032952 
311.500000	-0.075541 
312.000000	-0.242492 
312.500000	-0.090211 
313.000000	0.402442  
313.500000	0.934497  
314.000000	1.250252  
314.500000	1.400111  
315.000000	1.593994  
315.500000	1.599700  
316.000000	1.643886  
316.500000	1.687778  
317.000000	1.962787  
317.500000	2.248321  
318.000000	2.541003  
318.500000	2.659015  
319.000000	2.636542  
319.500000	2.516746  
320.000000	2.051636  
320.500000	1.358436  
321.000000	0.706577  
321.500000	0.460911  
322.000000	0.468311  
322.500000	0.638383  
323.000000	0.969186  
323.500000	1.481231  
324.000000	2.222179  
324.500000	2.884133  
325.000000	3.243765  
325.500000	3.349269  
326.000000	3.481759  
326.500000	3.482528  
327.000000	3.226284  
327.500000	2.895076  
328.000000	2.532923  
328.500000	2.327170  
329.000000	2.187068  
329.500000	2.079049  
330.000000	1.998846  
330.500000	2.178906  
331.000000	2.515165  
331.500000	2.830091  
332.000000	3.098931  
332.500000	3.301018  
333.000000	3.526807  
333.500000	3.492633  
334.000000	3.316988  
334.500000	2.926751  
335.000000	2.555552  
335.500000	2.124175  
336.000000	1.703612  
336.500000	1.269072  
337.000000	0.915638  
337.500000	0.763260  
338.000000	0.606482  
338.500000	0.612344  
339.000000	0.701343  
339.500000	0.909735  
340.000000	1.130323  
340.500000	1.457418  
341.000000	1.728584  
341.500000	2.056435  
342.000000	2.373280  
342.500000	2.532295  
343.000000	2.533036  
343.500000	2.389181  
344.000000	2.075941  
344.500000	1.791893  
345.000000	1.523803  
345.500000	1.182497  
346.000000	0.924481  
346.500000	0.760920  
347.000000	0.800045  
347.500000	0.958908  
348.000000	1.100897  
348.500000	1.083171  
349.000000	1.099529  
349.500000	1.203428  
350.000000	1.282950  
350.500000	1.370109  
351.000000	1.419129  
351.500000	1.590690  
352.000000	1.813183  
352.500000	2.024379  
353.000000	2.071602  
353.500000	2.015905  
354.000000	1.945328  
354.500000	1.817361  
355.000000	1.604843  
355.500000	1.388029  
356.000000	1.180267  
356.500000	1.038626  
357.000000	1.004777  
357.500000	1.074863  
358.000000	1.198113  
358.500000	1.426321  
359.000000	1.678724  
359.500000	1.795297  
360.000000	1.856411  
360.500000	1.872190  
361.000000	1.745879  
361.500000	1.539184  
362.000000	1.256316  
362.500000	1.040501  
363.000000	1.001323  
363.500000	1.124954  
364.000000	1.247918  
364.500000	1.350134  
365.000000	1.521558  
365.500000	1.643821  
366.000000	1.624726  
366.500000	1.454311  
367.000000	1.244400  
367.500000	1.102651  
368.000000	1.118036  
368.500000	1.261511  
369.000000	1.469195  
369.500000	1.750274  
370.000000	2.038186  
370.500000	2.201540  
371.000000	2.276995  
371.500000	2.269264  
372.000000	2.014845  
372.500000	1.630347  
373.000000	1.253767  
373.500000	0.937741  
374.000000	0.692024  
374.500000	0.548131  
375.000000	0.469577  
375.500000	0.614367  
376.000000	1.019772  
376.500000	1.328576  
377.000000	1.593544  
377.500000	1.803303  
378.000000	1.968841  
378.500000	1.986303  
379.000000	1.809849  
379.500000	1.474591  
380.000000	1.137302  
380.500000	0.977032  
381.000000	0.842526  
381.500000	0.784353  
382.000000	0.803021  
382.500000	0.882080  
383.000000	1.034465  
383.500000	1.131607  
384.000000	1.188695  
384.500000	1.167352  
385.000000	1.146665  
385.500000	1.126769  
386.000000	1.122682  
386.500000	1.064406  
387.000000	0.977794  
387.500000	0.977459  
388.000000	1.037552  
388.500000	1.117257  
389.000000	1.142479  
389.500000	1.145094  
390.000000	1.214455  
390.500000	1.338250  
391.000000	1.443911  
391.500000	1.482123  
392.000000	1.548516  
392.500000	1.689321  
393.000000	1.843057  
393.500000	1.942223  
394.000000	1.984085  
394.500000	2.005125  
395.000000	1.987067  
395.500000	1.942063  
396.000000	1.850494  
396.500000	1.684304  
397.000000	1.571182  
397.500000	1.507398  
398.000000	1.485876  
398.500000	1.489116  
399.000000	1.535064  
399.500000	1.530093  
400.000000	1.519785  
400.500000	1.522843  
401.000000	1.470004  
401.500000	1.419963  
402.000000	1.415708  
402.500000	1.440141  
403.000000	1.489179  
403.500000	1.613297  
404.000000	1.710496  
404.500000	1.762599  
405.000000	1.805007  
405.500000	1.799450  
406.000000	1.765179  
406.500000	1.740787  
407.000000	1.713594  
407.500000	1.660977  
408.000000	1.642360  
408.500000	1.631350  
409.000000	1.591570  
409.500000	1.574167  
410.000000	1.520916  
410.500000	1.449426  
411.000000	1.406008  
411.500000	1.369076  
412.000000	1.318925  
412.500000	1.279426  
413.000000	1.251991  
413.500000	1.226835  
414.000000	1.265861  
414.500000	1.320559  
415.000000	1.363577  
415.500000	1.401273  
416.000000	1.439454  
416.500000	1.465924  
417.000000	1.478513  
417.500000	1.454505  
418.000000	1.394534  
418.500000	1.354138  
419.000000	1.341436  
419.500000	1.322169  
420.000000	1.274182  
420.500000	1.236083  
421.000000	1.183313  
421.500000	1.153011  
422.000000	1.116444  
422.500000	1.105037  
423.000000	1.114935  
423.500000	1.192586  
424.000000	1.303561  
424.500000	1.365772  
425.000000	1.457314  
425.500000	1.510852  
426.000000	1.547968  
426.500000	1.519917  
427.000000	1.447465  
427.500000	1.346759  
428.000000	1.257189  
428.500000	1.208888  
429.000000	1.139255  
429.500000	1.141759  
430.000000	1.161231  
430.500000	1.207072  
431.000000	1.215368  
431.500000	1.202900  
432.000000	1.158450  
432.500000	1.102646  
433.000000	1.053356  
433.500000	0.981963  
434.000000	0.948538  
434.500000	0.953352  
435.000000	0.996078  
435.500000	1.045251  
436.000000	1.108073  
436.500000	1.157505  
437.000000	1.195725  
437.500000	1.209291  
438.000000	1.208044  
438.500000	1.196937  
439.000000	1.179711  
439.500000	1.167028  
440.000000	1.131750  
440.500000	1.106510  
441.000000	1.077732  
441.500000	1.065152  
442.000000	1.045507  
442.500000	1.038933  
443.000000	1.030781  
443.500000	1.025370  
444.000000	1.023035  
444.500000	1.014408  

