PE FL                   SPECTRUM    ASCII       PEDS        1.60        
  -1
PM2A8E~1
23/10/12
11:54:26.00
23/10/12
11:54:26.00


444.500000
1









LS55
45.00
5.00
5.00
SCAN
1
20
100
500
0
500
0
2
0
1
7
ON
500 450 
1 0 0
#HDR
-1
-1
#GR
NM

0.00002384185791015625
0.0
250.000000
0.500000
390
8
7.317064
-5.000000
#DATA
250.000000	-5.000000 
250.500000	-3.616180 
251.000000	-2.656149 
251.500000	-1.703799 
252.000000	-0.968421 
252.500000	-0.416012 
253.000000	-0.225047 
253.500000	0.037336  
254.000000	0.102707  
254.500000	0.303902  
255.000000	0.246835  
255.500000	-0.000690 
256.000000	-0.140737 
256.500000	-0.220100 
257.000000	-0.237078 
257.500000	-0.737839 
258.000000	-0.709563 
258.500000	-0.672819 
259.000000	-0.622319 
259.500000	-0.905142 
260.000000	-1.167849 
260.500000	-0.887206 
261.000000	-0.428154 
261.500000	0.316447  
262.000000	0.669718  
262.500000	1.190465  
263.000000	1.656273  
263.500000	1.610950  
264.000000	0.820680  
264.500000	-0.155180 
265.000000	-1.063599 
265.500000	-1.675101 
266.000000	-1.967704 
266.500000	-2.111438 
267.000000	-1.802081 
267.500000	-1.439757 
268.000000	-1.042230 
268.500000	-1.031413 
269.000000	-0.987803 
269.500000	-1.271743 
270.000000	-1.475960 
270.500000	-1.595823 
271.000000	-1.685303 
271.500000	-1.721372 
272.000000	-1.863178 
272.500000	-2.117826 
273.000000	-2.511974 
273.500000	-2.761116 
274.000000	-3.381618 
274.500000	-3.804029 
275.000000	-3.969281 
275.500000	-3.859904 
276.000000	-3.463566 
276.500000	-3.087306 
277.000000	-2.521620 
277.500000	-1.890591 
278.000000	-1.349319 
278.500000	-1.122927 
279.000000	-0.779664 
279.500000	-0.543945 
280.000000	-0.196367 
280.500000	-0.054687 
281.000000	0.135528  
281.500000	0.747625  
282.000000	1.641941  
282.500000	2.323081  
283.000000	2.624476  
283.500000	2.869243  
284.000000	2.822745  
284.500000	2.693567  
285.000000	2.170884  
285.500000	1.525051  
286.000000	1.323815  
286.500000	1.770134  
287.000000	2.295757  
287.500000	2.908088  
288.000000	3.504425  
288.500000	3.902154  
289.000000	4.158184  
289.500000	3.961246  
290.000000	3.230926  
290.500000	2.349357  
291.000000	1.702520  
291.500000	0.919946  
292.000000	0.255189  
292.500000	-0.384455 
293.000000	-0.872923 
293.500000	-1.029864 
294.000000	-0.801185 
294.500000	-0.471835 
295.000000	0.022649  
295.500000	0.967520  
296.000000	2.041656  
296.500000	3.072256  
297.000000	3.889319  
297.500000	4.592196  
298.000000	4.993453  
298.500000	5.169575  
299.000000	5.066602  
299.500000	4.949508  
300.000000	5.016335  
300.500000	5.244976  
301.000000	5.290212  
301.500000	5.204725  
302.000000	5.371157  
302.500000	5.703521  
303.000000	6.052680  
303.500000	6.146928  
304.000000	6.130824  
304.500000	6.335373  
305.000000	6.345473  
305.500000	6.066630  
306.000000	5.489690  
306.500000	5.028742  
307.000000	4.961679  
307.500000	5.129238  
308.000000	5.381869  
308.500000	5.498515  
309.000000	5.858248  
309.500000	6.158461  
310.000000	6.396276  
310.500000	6.398455  
311.000000	6.076851  
311.500000	5.879250  
312.000000	5.557532  
312.500000	5.658962  
313.000000	5.784662  
313.500000	5.966620  
314.000000	6.021484  
314.500000	5.947696  
315.000000	5.819459  
315.500000	5.619147  
316.000000	5.707489  
316.500000	5.565326  
317.000000	5.799238  
317.500000	6.306108  
318.000000	6.693001  
318.500000	6.858853  
319.000000	6.616560  
319.500000	6.122082  
320.000000	5.569252  
320.500000	5.062931  
321.000000	4.391958  
321.500000	3.981337  
322.000000	4.095547  
322.500000	4.615990  
323.000000	5.406377  
323.500000	6.093169  
324.000000	6.696369  
324.500000	7.176717  
325.000000	7.317064  
325.500000	7.021344  
326.000000	6.438561  
326.500000	5.816391  
327.000000	5.156804  
327.500000	4.675375  
328.000000	4.232923  
328.500000	3.927381  
329.000000	3.899684  
329.500000	3.859688  
330.000000	3.980908  
330.500000	4.081655  
331.000000	4.176847  
331.500000	4.033866  
332.000000	3.904883  
332.500000	3.690155  
333.000000	3.523536  
333.500000	3.450074  
334.000000	3.157794  
334.500000	3.002243  
335.000000	3.034576  
335.500000	3.225423  
336.000000	3.373830  
336.500000	3.597077  
337.000000	3.716946  
337.500000	3.843091  
338.000000	4.010620  
338.500000	3.937289  
339.000000	3.754508  
339.500000	3.594573  
340.000000	3.436564  
340.500000	3.340805  
341.000000	3.389002  
341.500000	3.396563  
342.000000	3.415915  
342.500000	3.519643  
343.000000	3.639371  
343.500000	3.617574  
344.000000	3.560060  
344.500000	3.431032  
345.000000	3.240480  
345.500000	3.119130  
346.000000	2.893640  
346.500000	2.619174  
347.000000	2.356669  
347.500000	2.229337  
348.000000	2.148472  
348.500000	2.155334  
349.000000	2.304022  
349.500000	2.588153  
350.000000	2.976609  
350.500000	3.362812  
351.000000	3.720001  
351.500000	3.948135  
352.000000	4.059747  
352.500000	3.975712  
353.000000	3.766822  
353.500000	3.537727  
354.000000	3.380033  
354.500000	3.301137  
355.000000	3.352868  
355.500000	3.606164  
356.000000	3.908313  
356.500000	4.188868  
357.000000	4.331390  
357.500000	4.307074  
358.000000	4.212262  
358.500000	4.134390  
359.000000	3.958033  
359.500000	3.792575  
360.000000	3.714504  
360.500000	3.641713  
361.000000	3.718541  
361.500000	3.894781  
362.000000	3.978257  
362.500000	4.039722  
363.000000	4.124653  
363.500000	4.274190  
364.000000	4.444000  
364.500000	4.631991  
365.000000	4.603642  
365.500000	4.582587  
366.000000	4.730428  
366.500000	4.845492  
367.000000	4.827136  
367.500000	4.740726  
368.000000	4.705975  
368.500000	4.712317  
369.000000	4.746838  
369.500000	4.579780  
370.000000	4.309506  
370.500000	4.158324  
371.000000	4.110575  
371.500000	4.110686  
372.000000	4.122089  
372.500000	4.221396  
373.000000	4.325596  
373.500000	4.480360  
374.000000	4.480884  
374.500000	4.347194  
375.000000	4.231039  
375.500000	4.069135  
376.000000	3.896710  
376.500000	3.724498  
377.000000	3.694801  
377.500000	3.714719  
378.000000	3.842876  
378.500000	3.873758  
379.000000	3.835646  
379.500000	3.847917  
380.000000	3.824193  
380.500000	3.791688  
381.000000	3.722868  
381.500000	3.720274  
382.000000	3.752522  
382.500000	3.882048  
383.000000	3.938920  
383.500000	3.893037  
384.000000	3.837135  
384.500000	3.775657  
385.000000	3.663136  
385.500000	3.543563  
386.000000	3.413989  
386.500000	3.355636  
387.000000	3.416507  
387.500000	3.488541  
388.000000	3.555918  
388.500000	3.626708  
389.000000	3.713837  
389.500000	3.713488  
390.000000	3.720953  
390.500000	3.628442  
391.000000	3.477655  
391.500000	3.360720  
392.000000	3.230399  
392.500000	3.085507  
393.000000	2.973772  
393.500000	2.973989  
394.000000	2.988769  
394.500000	3.054022  
395.000000	3.096025  
395.500000	3.064357  
396.000000	3.051169  
396.500000	3.024795  
397.000000	2.957588  
397.500000	2.879081  
398.000000	2.907718  
398.500000	2.950864  
399.000000	3.030753  
399.500000	3.080945  
400.000000	3.035443  
400.500000	2.994130  
401.000000	2.911720  
401.500000	2.761935  
402.000000	2.584697  
402.500000	2.473478  
403.000000	2.425320  
403.500000	2.432705  
404.000000	2.436022  
404.500000	2.414585  
405.000000	2.433834  
405.500000	2.476537  
406.000000	2.477315  
406.500000	2.436810  
407.000000	2.363434  
407.500000	2.334252  
408.000000	2.308967  
408.500000	2.235436  
409.000000	2.117897  
409.500000	2.009772  
410.000000	1.942882  
410.500000	1.900524  
411.000000	1.858514  
411.500000	1.780476  
412.000000	1.769246  
412.500000	1.824913  
413.000000	1.888781  
413.500000	1.977608  
414.000000	2.045055  
414.500000	2.134668  
415.000000	2.234940  
415.500000	2.311536  
416.000000	2.295584  
416.500000	2.226664  
417.000000	2.159118  
417.500000	2.053697  
418.000000	1.934425  
418.500000	1.805776  
419.000000	1.722620  
419.500000	1.691008  
420.000000	1.697624  
420.500000	1.741506  
421.000000	1.788104  
421.500000	1.866419  
422.000000	1.931428  
422.500000	1.981870  
423.000000	1.980529  
423.500000	1.936270  
424.000000	1.852720  
424.500000	1.734996  
425.000000	1.603429  
425.500000	1.492703  
426.000000	1.405914  
426.500000	1.361257  
427.000000	1.374932  
427.500000	1.433877  
428.000000	1.508426  
428.500000	1.588192  
429.000000	1.636308  
429.500000	1.642102  
430.000000	1.646392  
430.500000	1.606681  
431.000000	1.517308  
431.500000	1.429606  
432.000000	1.356011  
432.500000	1.310897  
433.000000	1.279098  
433.500000	1.261599  
434.000000	1.227879  
434.500000	1.230072  
435.000000	1.246391  
435.500000	1.250822  
436.000000	1.272621  
436.500000	1.290200  
437.000000	1.317328  
437.500000	1.358527  
438.000000	1.400824  
438.500000	1.412080  
439.000000	1.431601  
439.500000	1.458592  
440.000000	1.452164  
440.500000	1.446840  
441.000000	1.434247  
441.500000	1.401101  
442.000000	1.377331  
442.500000	1.343128  
443.000000	1.297521  
443.500000	1.249119  
444.000000	1.226345  
444.500000	1.184681  

