PE FL                   SPECTRUM    ASCII       PEDS        1.60        
  -1
PM2A4E~1
23/10/12
11:51:44.00
23/10/12
11:51:44.00


444.500000
1









LS55
25.00
5.00
5.00
SCAN
1
20
100
500
0
500
0
2
0
1
7
ON
500 450 
1 0 0
#HDR
-1
-1
#GR
NM

0.00002384185791015625
0.0
250.000000
0.500000
390
8
5.853983
-4.609132
#DATA
250.000000	-3.485000 
250.500000	-3.449669 
251.000000	-3.172604 
251.500000	-2.998582 
252.000000	-3.141999 
252.500000	-3.270553 
253.000000	-3.423770 
253.500000	-3.425844 
254.000000	-3.274244 
254.500000	-3.587721 
255.000000	-3.808207 
255.500000	-3.658063 
256.000000	-3.397492 
256.500000	-3.364632 
257.000000	-3.106973 
257.500000	-2.725639 
258.000000	-2.159198 
258.500000	-1.462979 
259.000000	-1.461462 
259.500000	-1.762863 
260.000000	-2.035595 
260.500000	-2.373609 
261.000000	-3.001025 
261.500000	-3.742392 
262.000000	-4.454968 
262.500000	-4.609132 
263.000000	-4.168783 
263.500000	-3.734167 
264.000000	-3.235338 
264.500000	-2.574167 
265.000000	-1.845422 
265.500000	-1.354535 
266.000000	-1.345020 
266.500000	-2.041319 
267.000000	-2.573214 
267.500000	-2.974221 
268.000000	-3.144287 
268.500000	-3.121788 
269.000000	-2.944137 
269.500000	-2.563659 
270.000000	-2.043962 
270.500000	-1.733863 
271.000000	-2.074430 
271.500000	-2.216997 
272.000000	-2.402990 
272.500000	-2.563202 
273.000000	-2.604157 
273.500000	-2.196279 
274.000000	-1.437767 
274.500000	-0.653152 
275.000000	0.121925  
275.500000	0.371038  
276.000000	0.695997  
276.500000	0.822737  
277.000000	0.861473  
277.500000	0.529958  
278.000000	0.167809  
278.500000	0.035866  
279.000000	0.029985  
279.500000	0.034108  
280.000000	-0.152828 
280.500000	-0.484691 
281.000000	-0.827393 
281.500000	-1.035054 
282.000000	-1.189684 
282.500000	-1.303225 
283.000000	-1.257588 
283.500000	-0.844146 
284.000000	0.039588  
284.500000	0.970333  
285.000000	1.452145  
285.500000	1.605047  
286.000000	1.646425  
286.500000	2.076431  
287.000000	2.456018  
287.500000	2.569137  
288.000000	2.712652  
288.500000	3.049422  
289.000000	3.336868  
289.500000	3.112417  
290.000000	2.572881  
290.500000	1.685843  
291.000000	1.069967  
291.500000	0.839088  
292.000000	0.588383  
292.500000	0.590502  
293.000000	0.937363  
293.500000	1.362956  
294.000000	1.920190  
294.500000	2.153667  
295.000000	2.104689  
295.500000	2.076921  
296.000000	2.107444  
296.500000	2.100511  
297.000000	2.266070  
297.500000	2.465304  
298.000000	2.568489  
298.500000	2.987551  
299.000000	3.390448  
299.500000	3.708881  
300.000000	3.967067  
300.500000	4.085185  
301.000000	3.864022  
301.500000	3.337245  
302.000000	2.922027  
302.500000	2.266445  
303.000000	1.582839  
303.500000	1.168449  
304.000000	1.119522  
304.500000	1.464268  
305.000000	1.913300  
305.500000	2.293056  
306.000000	2.301204  
306.500000	2.628219  
307.000000	2.811174  
307.500000	2.320865  
308.000000	1.761709  
308.500000	1.279717  
309.000000	1.222080  
309.500000	1.521709  
310.000000	2.093240  
310.500000	2.550087  
311.000000	3.594154  
311.500000	4.817171  
312.000000	5.519439  
312.500000	5.853983  
313.000000	5.714976  
313.500000	5.549352  
314.000000	5.017422  
314.500000	4.418718  
315.000000	3.744922  
315.500000	3.423961  
316.000000	3.354594  
316.500000	3.390823  
317.000000	3.531744  
317.500000	3.572377  
318.000000	3.862801  
318.500000	4.012916  
319.000000	4.207179  
319.500000	4.320860  
320.000000	4.499263  
320.500000	4.833317  
321.000000	5.146401  
321.500000	5.199529  
322.000000	5.236767  
322.500000	5.366651  
323.000000	5.275229  
323.500000	5.109673  
324.000000	4.739086  
324.500000	4.185003  
325.000000	3.740622  
325.500000	3.416363  
326.000000	2.888555  
326.500000	2.638314  
327.000000	2.559411  
327.500000	2.523194  
328.000000	2.695174  
328.500000	2.898812  
329.000000	2.870534  
329.500000	2.747149  
330.000000	2.711570  
330.500000	2.448659  
331.000000	2.308749  
331.500000	2.254805  
332.000000	2.092527  
332.500000	2.040368  
333.000000	2.150440  
333.500000	2.372663  
334.000000	2.485457  
334.500000	2.519718  
335.000000	2.535122  
335.500000	2.660193  
336.000000	2.780627  
336.500000	2.598329  
337.000000	2.289564  
337.500000	1.927408  
338.000000	1.772634  
338.500000	1.629053  
339.000000	1.348921  
339.500000	1.180826  
340.000000	1.226329  
340.500000	1.483249  
341.000000	1.615610  
341.500000	1.671461  
342.000000	1.522580  
342.500000	1.414530  
343.000000	1.352605  
343.500000	1.187874  
344.000000	1.037312  
344.500000	1.006321  
345.000000	1.134539  
345.500000	1.307619  
346.000000	1.576925  
346.500000	1.861431  
347.000000	2.051551  
347.500000	2.200112  
348.000000	2.292136  
348.500000	2.299924  
349.000000	2.182564  
349.500000	1.856478  
350.000000	1.521990  
350.500000	1.199162  
351.000000	0.951191  
351.500000	0.732609  
352.000000	0.470347  
352.500000	0.376795  
353.000000	0.447727  
353.500000	0.638907  
354.000000	0.801127  
354.500000	1.140634  
355.000000	1.416063  
355.500000	1.674577  
356.000000	1.883590  
356.500000	1.940290  
357.000000	2.006318  
357.500000	2.021077  
358.000000	1.988461  
358.500000	1.748865  
359.000000	1.608150  
359.500000	1.402592  
360.000000	1.176726  
360.500000	0.981559  
361.000000	0.723880  
361.500000	0.586246  
362.000000	0.523132  
362.500000	0.565724  
363.000000	0.623642  
363.500000	0.750982  
364.000000	0.891205  
364.500000	1.049034  
365.000000	1.183672  
365.500000	1.258348  
366.000000	1.257274  
366.500000	1.210283  
367.000000	1.184178  
367.500000	1.200276  
368.000000	1.120273  
368.500000	1.013147  
369.000000	0.910007  
369.500000	0.872451  
370.000000	0.889091  
370.500000	0.882176  
371.000000	0.888947  
371.500000	0.944014  
372.000000	1.132511  
372.500000	1.310262  
373.000000	1.456619  
373.500000	1.500948  
374.000000	1.503246  
374.500000	1.452002  
375.000000	1.351782  
375.500000	1.159429  
376.000000	0.985674  
376.500000	0.912757  
377.000000	0.954248  
377.500000	1.116459  
378.000000	1.271015  
378.500000	1.424166  
379.000000	1.573735  
379.500000	1.743939  
380.000000	1.815367  
380.500000	1.867213  
381.000000	1.893760  
381.500000	1.926483  
382.000000	2.015415  
382.500000	2.081430  
383.000000	2.054376  
383.500000	1.962504  
384.000000	1.868385  
384.500000	1.749996  
385.000000	1.668802  
385.500000	1.608586  
386.000000	1.563384  
386.500000	1.572146  
387.000000	1.651625  
387.500000	1.676736  
388.000000	1.694900  
388.500000	1.716469  
389.000000	1.694200  
389.500000	1.648565  
390.000000	1.675246  
390.500000	1.728740  
391.000000	1.774989  
391.500000	1.862806  
392.000000	1.947175  
392.500000	2.031420  
393.000000	2.135867  
393.500000	2.222949  
394.000000	2.247491  
394.500000	2.257410  
395.000000	2.295951  
395.500000	2.267160  
396.000000	2.196895  
396.500000	2.096249  
397.000000	1.999607  
397.500000	1.915887  
398.000000	1.841143  
398.500000	1.765638  
399.000000	1.694835  
399.500000	1.729279  
400.000000	1.804025  
400.500000	1.878626  
401.000000	1.937140  
401.500000	2.012422  
402.000000	2.043219  
402.500000	2.025408  
403.000000	2.019304  
403.500000	1.941816  
404.000000	1.878865  
404.500000	1.841421  
405.000000	1.842370  
405.500000	1.834655  
406.000000	1.853867  
406.500000	1.879508  
407.000000	1.904694  
407.500000	1.937486  
408.000000	1.945541  
408.500000	1.960314  
409.000000	1.953442  
409.500000	1.975600  
410.000000	2.001246  
410.500000	1.993526  
411.000000	1.954096  
411.500000	1.867677  
412.000000	1.746795  
412.500000	1.560735  
413.000000	1.405074  
413.500000	1.266348  
414.000000	1.198689  
414.500000	1.207461  
415.000000	1.233173  
415.500000	1.305674  
416.000000	1.393125  
416.500000	1.481464  
417.000000	1.521313  
417.500000	1.550752  
418.000000	1.554976  
418.500000	1.573001  
419.000000	1.589481  
419.500000	1.558256  
420.000000	1.520197  
420.500000	1.466206  
421.000000	1.406346  
421.500000	1.338088  
422.000000	1.256792  
422.500000	1.187846  
423.000000	1.187875  
423.500000	1.239247  
424.000000	1.296233  
424.500000	1.362505  
425.000000	1.433515  
425.500000	1.473649  
426.000000	1.497617  
426.500000	1.493098  
427.000000	1.427473  
427.500000	1.352646  
428.000000	1.292285  
428.500000	1.228359  
429.000000	1.178528  
429.500000	1.157450  
430.000000	1.155981  
430.500000	1.170800  
431.000000	1.213693  
431.500000	1.216055  
432.000000	1.184379  
432.500000	1.172341  
433.000000	1.155359  
433.500000	1.144364  
434.000000	1.146292  
434.500000	1.166154  
435.000000	1.175836  
435.500000	1.203090  
436.000000	1.225883  
436.500000	1.217323  
437.000000	1.215391  
437.500000	1.210686  
438.000000	1.199869  
438.500000	1.197456  
439.000000	1.220258  
439.500000	1.233122  
440.000000	1.243999  
440.500000	1.251588  
441.000000	1.232181  
441.500000	1.203611  
442.000000	1.152871  
442.500000	1.097815  
443.000000	1.042306  
443.500000	1.011276  
444.000000	0.989441  
444.500000	0.979607  

